# <Transmitter Set: Tx: 2 TX1 - Point 1> 
# <Receiver Set: Rx: 9 Walk2 > 
# <number of receiver points>
# <receiver point number> <number of paths for this point>
# <path number> <arrival phi(deg)> <arrival theta(deg)> <received power(dBm)>
 18
1 25
1 -46.5963 86.8798 -85.7652
2 136.227 89.1906 -107.48
3 136.198 89.1906 -112.285
4 -50.9109 86.8872 -116.582
5 -157.834 89.0595 -116.947
6 -49.7062 86.8919 -117.01
7 -32.7699 86.89 -117.126
8 -157.84 89.0595 -117.803
9 -41.8338 86.8939 -118.44
10 -55.7697 86.9611 -121.491
11 -80.4981 87.2421 -121.886
12 -33.1419 86.9745 -122.663
13 -16.5219 87.3254 -122.79
14 -53.2736 86.9318 -123.025
15 -73.4798 91.6214 -123.697
16 -69.122 87.2396 -123.835
17 -73.556 92.5246 -124.109
18 -135.591 89.4224 -124.325
19 30.581 91.4283 -124.361
20 -134.581 89.2415 -124.466
21 -80.4021 87.2422 -124.738
22 25.316 93.9929 -125.102
23 -16.4124 87.3255 -125.413
24 41.8948 39.6885 -125.456
25 -51.6409 88.3571 -125.738
2 25
1 -46.136 86.6067 -84.9737
2 8.62436 88.4173 -101.383
3 8.59734 88.4173 -102.476
4 9.59191 88.4726 -104.234
5 9.56555 88.4726 -105.279
6 10.1816 88.5281 -108.11
7 8.38136 88.0777 -109.676
8 10.4613 88.5218 -111.78
9 -66.1926 85.5618 -112.528
10 135.797 89.2071 -112.744
11 10.4355 88.5218 -112.888
12 -6.8318 87.6943 -114.627
13 -85.998 87.0628 -114.838
14 -50.7134 86.6142 -115.173
15 -40.7893 86.683 -115.221
16 -1.70411 86.7159 -115.892
17 -49.4405 86.6199 -115.968
18 8.37585 87.6777 -116.035
19 -98.8147 88.6756 -117.021
20 -86.1324 87.0629 -117.129
21 -6.92843 87.6943 -117.314
22 -98.7911 88.6756 -117.886
23 -66.0658 84.2676 -118.007
24 -40.1906 86.6273 -118.487
25 10.3325 88.5281 -120.533
3 25
1 -47.804 86.3169 -84.2074
2 123.183 86.7366 -90.5647
3 88.0821 94.7408 -104.001
4 66.018 88.521 -105.832
5 -109.661 88.6115 -106.988
6 116.464 77.8684 -107.276
7 11.488 88.485 -109.363
8 -109.661 88.6099 -111.02
9 126.576 86.7369 -111.394
10 9.73744 87.9801 -112.398
11 136.346 89.2217 -112.746
12 -12.7857 86.4163 -114.211
13 -109.661 92.1634 -114.815
14 -89.7045 89.22 -115.013
15 -56.4066 86.34 -115.478
16 -42.5308 86.3317 -115.694
17 -52.3097 86.3405 -115.881
18 -54.9241 86.3482 -116.023
19 136.599 89.2217 -116.624
20 -12.8786 86.4164 -116.821
21 -55.7734 86.3479 -117.523
22 32.7534 88.3784 -118.126
23 42.4316 88.28 -118.598
24 9.73174 87.5598 -118.661
25 12.1391 88.4261 -118.745
4 25
1 -50.2822 85.9871 -83.4122
2 -66.6297 86.0598 -101.586
3 67.0653 88.5031 -101.749
4 125.267 86.945 -102.224
5 -66.6736 86.0598 -102.991
6 -91.8067 86.8032 -103.023
7 126.26 86.945 -104.523
8 -44.6276 86.0676 -105.15
9 11.3392 88.3061 -106.238
10 110.74 92.5626 -106.938
11 12.4067 88.3759 -107.127
12 -91.9927 86.8032 -107.176
13 -44.6175 86.0676 -107.197
14 11.37 88.3061 -107.333
15 13.2355 88.43 -107.523
16 12.4366 88.3759 -108.218
17 123.526 86.6343 -109.456
18 -47.0378 85.9921 -109.759
19 -91.2861 87.9284 -112.402
20 55.2686 88.3056 -112.518
21 21.4831 88.4495 -112.555
22 123.974 86.6344 -112.687
23 66.926 88.5031 -112.806
24 136.659 69.4907 -112.847
25 -61.1933 86.0558 -112.911
5 25
1 -50.3832 85.5221 -82.4033
2 126.026 87.1683 -91.5986
3 126.754 87.1683 -96.1985
4 -67.3809 85.6322 -96.6222
5 -67.3369 85.6322 -97.7518
6 69.0215 88.5294 -101.809
7 14.8289 88.407 -104.148
8 -43.9287 85.624 -106.557
9 -64.2848 85.6206 -107.718
10 -19.0867 88.9418 -108.784
11 -46.3047 85.5289 -109.013
12 -43.9167 85.624 -109.245
13 117.532 91.7358 -110.914
14 -64.2653 85.6207 -111.402
15 70.092 89.8135 -111.625
16 68.8218 88.5294 -112.118
17 -117.267 88.8726 -112.128
18 -94.9096 87.8446 -112.579
19 -58.0765 85.5846 -113.609
20 -94.945 87.8447 -113.793
21 -90.4762 86.519 -113.912
22 -38.2987 85.5549 -114.709
23 -19.0963 88.9418 -115.156
24 133.721 66.7417 -115.191
25 -74.6979 85.6449 -116.37
6 25
1 -50.1031 84.9356 -81.2832
2 -68.4107 85.0786 -90.9678
3 -68.4473 85.0786 -91.916
4 126.126 87.3619 -95.1691
5 70.8481 88.5589 -101.896
6 127.004 87.362 -102.238
7 -155.247 88.9174 -106.729
8 -98.0351 86.2673 -107.021
9 -85.0405 86.8699 -107.834
10 -98.0659 86.2673 -108.39
11 -85.0199 86.8699 -108.997
12 -43.5468 84.9494 -109.709
13 77.4385 88.8854 -111.455
14 -59.3683 85.0185 -111.764
15 -73.387 85.3276 -112.419
16 -73.8698 85.1052 -113.098
17 118.483 91.0058 -113.35
18 -14.463 85.2492 -115.049
19 119.254 87.3955 -115.225
20 -26.6543 85.013 -115.289
21 129.705 66.5852 -115.604
22 -73.37 85.3277 -115.777
23 88.8291 86.8799 -115.786
24 119.231 87.3955 -116.668
25 29.7099 86.9182 -117.589
7 25
1 -49.8883 84.1725 -80.0216
2 -80.2166 84.753 -89.3225
3 -80.2458 84.753 -90.0022
4 -3.34917 88.2814 -102.622
5 126.277 87.5306 -103.658
6 72.6215 88.5878 -105.236
7 -89.6086 86.6493 -108.802
8 -61.7293 84.292 -108.866
9 -106.132 86.5303 -109.701
10 -77.2816 84.4142 -109.789
11 -40.6143 84.3659 -109.865
12 -89.6329 86.6493 -110.152
13 -37.248 84.2055 -110.679
14 -106.102 86.5304 -111.228
15 83.4025 89.1092 -111.917
16 127.378 87.5308 -112.455
17 136.303 89.2781 -113.668
18 -71.287 84.5407 -114.803
19 136.458 89.2781 -114.867
20 -3.34395 87.8422 -115.294
21 11.1162 84.8288 -115.381
22 120.311 90.8235 -115.468
23 -17.5713 86.8151 -115.583
24 -40.594 84.3661 -115.852
25 74.6575 88.5924 -116.04
8 25
1 -50.5142 83.1428 -78.5785
2 -8.94227 83.2507 -93.4887
3 -68.149 83.3629 -95.1924
4 -68.1064 83.3629 -96.8217
5 -7.45984 83.2509 -100.185
6 -157.923 88.9295 -102.859
7 -13.6361 86.572 -105.473
8 74.4242 88.6132 -105.655
9 -80.8266 83.7753 -106.09
10 -13.6862 86.5721 -106.904
11 -103.849 83.7494 -107.493
12 -80.9373 83.7755 -108.26
13 121.29 87.6965 -109.457
14 -39.1276 83.4134 -109.465
15 121.288 87.6965 -109.849
16 126.718 87.6781 -111.677
17 136.342 89.2914 -112.361
18 89.1734 89.2666 -112.531
19 -103.691 83.75 -112.613
20 43.7945 88.2325 -112.722
21 43.7753 88.2325 -113.466
22 136.253 89.2914 -113.901
23 -25.515 81.7333 -114.669
24 -93.8666 84.1464 -115.197
25 65.9361 88.5095 -115.811
9 25
1 -54.9384 81.9207 -77.1366
2 -11.5442 86.2704 -93.5749
3 -11.4856 86.2704 -95.3601
4 -42.753 82.1949 -103.116
5 -96.0351 86.2678 -103.506
6 -133.646 88.5548 -104.327
7 -96.0065 86.2678 -104.591
8 -133.547 88.5051 -104.597
9 126.443 85.321 -104.646
10 -133.562 88.5051 -105.259
11 -159.392 88.9536 -105.462
12 -42.7231 82.195 -106.976
13 126.681 85.321 -107.414
14 8.19607 86.9718 -108.104
15 -148.367 83.8956 -108.532
16 8.15409 86.9718 -109.491
17 -136.342 85.9573 -109.874
18 81.7107 88.6619 -110.879
19 81.7162 88.6619 -111.604
20 76.3339 88.6237 -111.749
21 -136.298 85.9574 -111.818
22 81.8756 88.6479 -112.59
23 -15.9488 84.2718 -112.651
24 -117.438 83.9626 -113.036
25 96.5985 89.3786 -113.048
10 25
1 -67.0536 81.7002 -76.9194
2 -140.75 86.3186 -95.3565
3 -140.788 86.3186 -96.2568
4 -112.318 83.2829 -97.5487
5 -112.217 83.2831 -99.3035
6 135.037 83.6685 -103.806
7 -62.3288 81.7382 -104.709
8 -159.363 88.9811 -105.634
9 -152.679 84.718 -107.17
10 -90.783 82.8623 -107.932
11 78.0054 88.5954 -108.952
12 -152.533 84.7184 -109.754
13 39.6182 86.6748 -110.153
14 59.6558 84.4944 -111.001
15 -17.3755 85.956 -112.411
16 -90.2 82.8701 -112.461
17 40.7266 88.1559 -112.78
18 133.39 83.6691 -112.789
19 -16.9501 85.4009 -112.804
20 -130.001 84.6507 -113.645
21 -31.9591 80.013 -113.948
22 108.529 88.8215 -114.221
23 105.518 87.941 -114.39
24 -103.513 86.4465 -114.479
25 39.3496 86.6748 -114.76
11 25
1 -78.781 82.1238 -77.373
2 -81.2729 82.1348 -97.2625
3 134.577 87.7794 -97.3324
4 -46.5742 83.1655 -97.3711
5 -46.6861 83.1656 -99.5147
6 -3.11599 87.9839 -100.901
7 -159.083 89.0069 -104.928
8 -159.083 89.0069 -104.928
9 -142.07 86.6369 -105.879
10 -142.101 86.6369 -106.956
11 -81.2905 82.1348 -109.73
12 -159.083 91.5458 -110.002
13 -122.952 84.1574 -110.468
14 79.5567 88.5598 -110.471
15 -151.386 85.352 -111.104
16 120.665 87.8686 -111.262
17 179.206 84.2508 -112.769
18 -9.76592 88.0896 -113.013
19 -27.2762 84.0337 -113.356
20 -92.7568 87.3478 -113.695
21 -9.77276 88.0896 -113.795
22 142.376 87.9024 -113.85
23 -8.6353 85.9338 -113.851
24 116.085 88.6351 -113.871
25 -151.286 85.3523 -114.125
12 25
1 -88.6442 82.8252 -78.1835
2 -68.6047 86.0786 -93.9166
3 -68.5312 86.0786 -95.6989
4 -85.5081 82.8274 -98.9015
5 137.798 87.8041 -99.6703
6 -66.8348 89.0455 -108.098
7 -142.51 86.9062 -108.83
8 -179.424 85.6191 -109.347
9 -142.537 86.9062 -110.023
10 -179.36 85.6192 -110.083
11 -157.564 86.1691 -110.83
12 -66.545 89.0468 -110.872
13 -96.2463 82.9366 -111.373
14 22.8467 87.8274 -113.197
15 -157.679 86.1691 -113.219
16 115.537 88.6316 -113.716
17 -149.912 85.8491 -114.313
18 22.9021 87.8275 -114.468
19 126.169 87.8655 -114.708
20 -128.2 84.8865 -114.917
21 -50.0893 107.847 -115.397
22 47.3829 86.1874 -115.686
23 94.1302 88.8887 -116.663
24 -149.837 85.8495 -117.94
25 77.3232 88.2176 -118.381
13 25
1 20.5691 87.7031 -98.208
2 20.5059 87.7031 -99.7822
3 -95.7624 79.5224 -100.599
4 -164.236 84.7566 -106.854
5 -142.476 87.1359 -109.694
6 99.5128 88.5334 -109.715
7 -51.7047 85.4247 -109.741
8 -41.104 84.5392 -110.052
9 -142.499 87.1359 -110.861
10 121.709 88.0223 -110.953
11 -164.725 84.7569 -111.138
12 -102.296 87.9991 -111.697
13 -51.6326 85.4249 -112.313
14 -102.191 87.9991 -113.333
15 47.1626 84.7605 -113.342
16 -58.6066 81.9267 -113.89
17 -85.2591 83.621 -114.7
18 111.621 88.4465 -115.07
19 -55.1666 78.1413 -116.473
20 -148.462 86.2494 -116.864
21 -26.9083 78.5664 -116.92
22 -130.932 85.4714 -117.162
23 -154.864 86.5056 -118.216
24 149.23 84.1929 -119.622
25 -62.8468 88.8192 -120.05
14 25
1 -101.415 84.3586 -80.312
2 144.159 87.8418 -96.5843
3 -123.205 86.1327 -98.0163
4 -123.219 86.1327 -104.438
5 -141.463 87.3306 -105.398
6 -141.484 87.3307 -106.276
7 -97.3499 84.3766 -106.995
8 60.9435 87.8872 -107.42
9 130.561 88.183 -108.052
10 -122.993 86.1327 -108.584
11 130.544 88.183 -109.201
12 -51.0569 84.6044 -110.069
13 128.497 87.8003 -110.725
14 42.8526 82.775 -112.957
15 -154.847 84.765 -113.454
16 -64.4291 85.557 -113.555
17 -70.3135 84.8864 -113.778
18 143.634 87.8425 -114.722
19 -111.161 84.578 -115.054
20 125.642 88.0417 -115.377
21 62.7441 87.8873 -115.934
22 -35.4013 78.2626 -116.059
23 22.7246 87.8238 -116.083
24 -1.99308 85.2555 -116.154
25 -30.9751 88.4539 -116.436
15 25
1 -101.713 85.073 -81.5354
2 -93.2366 85.0773 -95.4974
3 -93.0294 85.0773 -100.393
4 17.565 93.5853 -100.974
5 -30.1781 88.2289 -103.262
6 -156.951 89.0884 -104.813
7 -156.951 89.0884 -104.813
8 17.565 87.7498 -105.308
9 147.019 87.7988 -108.038
10 -98.6683 85.0842 -108.425
11 41.9929 79.6985 -110.493
12 17.8311 93.5853 -110.689
13 -57.0474 85.3292 -110.924
14 17.6249 93.8271 -110.926
15 -154.682 87.2307 -111.556
16 -78.3937 85.4135 -112.311
17 -137.844 87.4716 -112.452
18 137.722 84.8704 -112.929
19 108.139 88.3815 -113.477
20 133.362 88.1337 -113.623
21 -154.751 87.2307 -113.696
22 -137.826 87.4717 -113.728
23 153.243 87.8738 -113.978
24 108.117 88.3815 -114.283
25 117.384 88.8158 -114.342
16 25
1 -104.596 85.5827 -82.5295
2 150.403 87.813 -98.3676
3 111.132 88.3258 -99.7317
4 111.155 88.3258 -100.606
5 15.5791 87.6383 -102.261
6 -103.539 85.5841 -104.544
7 -156.032 89.1059 -105.824
8 150.454 87.813 -106.254
9 39.7891 80.8223 -108.785
10 143.786 87.8179 -109.442
11 -83.6393 85.6561 -109.524
12 9.67257 93.7558 -109.703
13 -111.374 85.589 -109.781
14 141.608 87.1091 -110.069
15 85.1 87.7576 -111.805
16 -63.8643 86.4265 -111.93
17 85.1483 87.7577 -112.948
18 108.88 88.3684 -113.046
19 -83.5794 85.6562 -113.078
20 -66.0704 86.1807 -113.305
21 -142.441 86.814 -113.522
22 -102.996 85.586 -113.683
23 105.409 88.4143 -113.798
24 168.916 88.2107 -113.826
25 108.856 88.3684 -113.94
17 25
1 -107.934 85.9724 -83.382
2 -108.066 85.9724 -93.2451
3 153.419 87.8553 -99.7532
4 -107.869 97.0679 -100.929
5 -108.542 85.9729 -104.768
6 20.2067 87.5622 -105.361
7 20.251 87.5622 -106.402
8 41.0103 79.1992 -106.793
9 13.7252 87.1516 -108.81
10 -42.4467 88.193 -109.122
11 153.588 87.8553 -109.221
12 155.639 87.5668 -109.482
13 155.675 87.5668 -110.152
14 -42.4152 88.193 -110.256
15 13.8741 87.1516 -110.527
16 171.665 88.2611 -111.128
17 -102.669 85.9784 -111.349
18 139.649 85.7467 -111.696
19 171.673 88.2611 -111.914
20 -70.9353 86.8645 -112.58
21 -72.2474 88.7311 -113.42
22 65.625 88.4673 -113.644
23 13.545 87.5019 -114.358
24 -88.295 88.6795 -114.602
25 -115.581 86.1276 -115.781
18 25
1 -112.375 86.2146 -83.9564
2 -112.375 96.0226 -89.5667
3 13.6399 87.3333 -95.5486
4 10.7881 86.9309 -96.1311
5 10.5481 86.9309 -98.4383
6 -24.5653 87.1332 -99.5033
7 155.552 87.9361 -99.9826
8 -24.6703 87.1332 -101.023
9 -112.308 95.5573 -101.273
10 -120.219 86.3854 -104.668
11 50.5346 83.0242 -105.213
12 32.1577 88.1506 -105.342
13 11.6421 87.3335 -106.327
14 -120.193 86.3854 -106.458
15 13.79 87.3333 -106.583
16 -155.768 89.1442 -107.1
17 84.4738 88.2044 -107.697
18 -120.219 95.7521 -110.035
19 -114.348 86.22 -110.168
20 -118.237 86.3864 -110.185
21 -105.222 86.252 -110.23
22 81.8216 88.0364 -110.774
23 81.8449 88.0364 -111.367
24 -124.217 88.865 -111.486
25 -120.193 95.752 -111.827
