# <Transmitter Set: Tx: 2 TX1 - Point 1> 
# <Receiver Set: Rx: 9 Walk2 > 
# <number of receiver points>
# <receiver point number> <number of paths for this point>
#	rx pt summary:
#	<received power (dBm)>
#	<mean time of arrival (sec)>
#	<delay spread (sec)>
#		path summary:
#		<path number>
#		<total interactions for path> (not including Tx and Rx)
#		<received power(dBm)>
#		<phase(deg)>
#		<time of arrival(sec)>
#		<arrival theta(deg)>
#		<arrival phi(deg)>
#		<departure theta(deg)>
#		<departure phi(deg)>
#			interactions summary:
#			<interaction description> (Tx:transmitter, Rx:receiver, T:transmission, R:reflection, D:diffraction)
#			<cartesian locations of interactions> (including Tx and Rx)
18
1 25
-85.2992 2.33694e-07 6.44697e-08
1 0 -85.7652 -38.1823 2.26819e-07 86.8798 -46.5963 93.1202 133.404
Tx-Rx 
12.0458 -18.3613 5.3
-34.5942 30.9526 1.6
2 1 -107.48 54.6813 8.73977e-07 89.1906 136.227 90.8094 135.065
Tx-D-Rx 
12.0458 -18.3613 5.3
-104.663 98.0824 2.97088
-34.5942 30.9526 1.6
3 2 -112.285 -169.735 8.73977e-07 89.1906 136.198 90.8094 135.082
Tx-R-R-Rx 
12.0458 -18.3613 5.3
-104.422 97.7728 2.97638
-104.625 98.1131 2.97079
-34.5942 30.9526 1.6
4 1 -116.582 -21.1951 2.27357e-07 86.8872 -50.9109 93.1128 137.011
Tx-D-Rx 
12.0458 -18.3613 5.3
-15.0566 6.90237 3.28508
-34.5942 30.9526 1.6
5 3 -116.947 17.1343 7.52131e-07 89.0595 -157.834 90.9405 140.49
Tx-D-R-R-Rx 
12.0458 -18.3613 5.3
-9.15422 -0.879044 4.84889
-98.8101 -36.4786 3.26525
-79.9502 12.4748 2.40402
-34.5942 30.9526 1.6
6 1 -117.01 -44.0209 2.27701e-07 86.8919 -49.7062 93.1081 141.598
Tx-D-Rx 
12.0458 -18.3613 5.3
-2.67641 -6.69178 4.27992
-34.5942 30.9526 1.6
7 1 -117.126 -12.009 2.27562e-07 86.89 -32.7699 93.11 131.855
Tx-D-Rx 
12.0458 -18.3613 5.3
-28.7763 27.2076 1.97593
-34.5942 30.9526 1.6
8 3 -117.803 -174.963 7.52132e-07 89.0595 -157.84 90.9405 140.449
Tx-D-R-R-Rx 
12.0458 -18.3613 5.3
-9.11678 -0.884772 4.84943
-98.8025 -36.4861 3.26532
-79.9419 12.4833 2.40384
-34.5942 30.9526 1.6
9 1 -118.44 98.1441 2.27848e-07 86.8939 -41.8338 93.1061 127.157
Tx-D-Rx 
12.0458 -18.3613 5.3
-5.77742 5.15686 3.69872
-34.5942 30.9526 1.6
10 1 -121.491 -18.7359 2.32877e-07 86.9611 -55.7697 93.0389 152.113
Tx-D-Rx 
12.0458 -18.3613 5.3
-8.40546 -7.53907 4.07162
-34.5942 30.9526 1.6
11 1 -121.886 69.8281 2.56587e-07 87.2421 -80.4981 92.7579 156.306
Tx-D-Rx 
12.0458 -18.3613 5.3
-29.3832 -0.180724 3.1206
-34.5942 30.9526 1.6
12 3 -122.663 -145.156 2.33912e-07 86.9745 -33.1419 93.0255 118.49
Tx-D-F-X-Rx 
12.0458 -18.3613 5.3
-3.8089 10.8519 3.54324
-11.3622 15.7837 3.06646
-12.415 16.4711 3
-34.5942 30.9526 1.6
13 2 -122.79 52.1075 2.6457e-07 87.3254 -16.5219 92.6746 156.382
Tx-D-R-Rx 
12.0458 -18.3613 5.3
-29.3133 -0.276928 3.1913
-30.849 29.8417 1.78249
-34.5942 30.9526 1.6
14 1 -123.025 107.718 2.3066e-07 86.9318 -53.2736 93.0682 149.828
Tx-D-Rx 
12.0458 -18.3613 5.3
-5.34414 -8.25152 4.22181
-34.5942 30.9526 1.6
15 1 -123.697 -16.7384 2.52734e-07 91.6214 -73.4798 96.9053 158.319
Tx-D-Rx 
12.0458 -18.3613 5.3
-24.2475 -3.93206 0.57
-34.5942 30.9526 1.6
16 1 -123.835 -159.43 2.56358e-07 87.2396 -69.122 92.7604 167.62
Tx-D-Rx 
12.0458 -18.3613 5.3
-18.3277 -11.6942 3.80069
-34.5942 30.9526 1.6
17 1 -124.109 119.986 2.53044e-07 92.5246 -73.556 97.7087 158.25
Tx-D-Rx 
12.0458 -18.3613 5.3
-24.3215 -3.85224 0
-34.5942 30.9526 1.6
18 1 -124.325 -65.4932 3.3934e-07 89.4224 -135.591 92.6737 156.236
Tx-DS-Rx 
12.0458 -18.3613 5.3
-54.862 11.099 1.88603
-34.5942 30.9526 1.6
19 2 -124.361 132.497 2.67761e-07 91.4283 30.581 92.7682 156.306
Tx-D-DS-Rx 
12.0458 -18.3613 5.3
-29.3832 -0.180724 3.11247
-32.6345 32.1107 1.54324
-34.5942 30.9526 1.6
20 1 -124.466 -70.1271 3.37772e-07 89.2415 -134.581 92.6205 156.374
Tx-DS-Rx 
12.0458 -18.3613 5.3
-54.5039 10.7496 1.9755
-34.5942 30.9526 1.6
21 1 -124.738 -20.4539 2.566e-07 87.2422 -80.4021 92.7578 156.382
Tx-D-Rx 
12.0458 -18.3613 5.3
-29.3133 -0.276928 3.12565
-34.5942 30.9526 1.6
22 2 -125.102 -146.049 2.67371e-07 93.9929 25.316 92.8519 156.382
Tx-D-DS-Rx 
12.0458 -18.3613 5.3
-29.3133 -0.276928 3.05131
-32.502 31.9423 1.43844
-34.5942 30.9526 1.6
23 2 -125.413 15.262 2.6458e-07 87.3255 -16.4124 92.6745 156.306
Tx-D-R-Rx 
12.0458 -18.3613 5.3
-29.3832 -0.180724 3.18659
-30.857 29.8518 1.78199
-34.5942 30.9526 1.6
24 2 -125.456 21.5992 2.5945e-07 39.6885 41.8948 90.7558 161.117
Tx-D-DS-Rx 
12.0458 -18.3613 5.3
-15.2952 -9.0096 4.91881
-32.9112 32.4624 4.32441
-34.5942 30.9526 1.6
25 4 -125.738 -9.79835 4.30608e-07 88.3571 -51.6409 91.6429 131.454
Tx-F-X-R-D-Rx 
12.0458 -18.3613 5.3
-5.9378 1.99803 4.52085
-9.04407 5.51465 4.38627
-28.4357 27.4681 3.54611
-11.543 1.82658 2.66539
-34.5942 30.9526 1.6
2 25
-85.6653 2.28162e-07 7.0486e-08
1 0 -84.9737 132.845 2.08584e-07 86.6067 -46.136 93.3933 133.864
Tx-Rx 
12.0458 -18.3613 5.3
-31.1957 26.6298 1.6
2 1 -101.383 -8.8129 4.46991e-07 88.4173 8.62436 91.5827 63.6254
Tx-D-Rx 
12.0458 -18.3613 5.3
39.6855 37.3804 3.58088
-31.1957 26.6298 1.6
3 1 -102.476 160.421 4.46991e-07 88.4173 8.59734 91.5827 63.5942
Tx-D-Rx 
12.0458 -18.3613 5.3
39.708 37.3496 3.58137
-31.1957 26.6298 1.6
4 1 -104.234 28.1505 4.63158e-07 88.4726 9.59191 91.5274 62.5086
Tx-D-Rx 
12.0458 -18.3613 5.3
41.8847 38.9799 3.57634
-31.1957 26.6298 1.6
5 1 -105.279 -167.17 4.63158e-07 88.4726 9.56555 91.5274 62.4783
Tx-D-Rx 
12.0458 -18.3613 5.3
41.9073 38.9491 3.5768
-31.1957 26.6298 1.6
6 3 -108.11 13.4487 4.80632e-07 88.5281 10.1816 91.4719 60.9688
Tx-F-X-R-Rx 
12.0458 -18.3613 5.3
38.486 29.277 3.90003
40.7964 33.4398 3.77769
44.569 40.237 3.57794
-31.1957 26.6298 1.6
7 1 -109.676 -121.422 4.45194e-07 88.0777 8.38136 91.2039 63.6057
Tx-D-Rx 
12.0458 -18.3613 5.3
39.5466 37.0526 4
-31.1957 26.6298 1.6
8 3 -111.78 -88.985 4.78578e-07 88.5218 10.4613 91.4782 61.5399
Tx-F-X-D-Rx 
12.0458 -18.3613 5.3
38.1598 29.8145 3.8859
40.029 33.263 3.78468
43.9549 40.5056 3.57208
-31.1957 26.6298 1.6
9 1 -112.528 33.9858 2.27045e-07 85.5618 -66.1926 91.37 160.793
Tx-D-Rx 
12.0458 -18.3613 5.3
-15.5936 -8.73246 4.6
-31.1957 26.6298 1.6
10 1 -112.744 -137.07 8.92152e-07 89.2071 135.797 90.7929 135.065
Tx-D-Rx 
12.0458 -18.3613 5.3
-104.663 98.0824 3.01834
-31.1957 26.6298 1.6
11 3 -112.888 72.2549 4.78579e-07 88.5218 10.4355 91.4782 61.5103
Tx-F-X-D-Rx 
12.0458 -18.3613 5.3
38.1751 29.7838 3.88641
40.0747 33.2838 3.78365
43.9774 40.4748 3.57251
-31.1957 26.6298 1.6
12 1 -114.627 -87.0062 3.0687e-07 87.6943 -6.8318 92.3057 77.5507
Tx-D-Rx 
12.0458 -18.3613 5.3
20.6082 20.4234 3.70076
-31.1957 26.6298 1.6
13 1 -114.838 2.04589 2.40936e-07 87.0628 -85.998 92.9372 156.382
Tx-D-Rx 
12.0458 -18.3613 5.3
-29.3133 -0.276928 2.98393
-31.1957 26.6298 1.6
14 1 -115.173 34.9572 2.09041e-07 86.6142 -50.7134 93.3858 137.011
Tx-D-Rx 
12.0458 -18.3613 5.3
-15.0566 6.90237 3.10795
-31.1957 26.6298 1.6
15 1 -115.221 -178.251 2.13372e-07 86.683 -40.7893 93.317 106.456
Tx-D-Rx 
12.0458 -18.3613 5.3
9.00137 -8.05422 4.67711
-31.1957 26.6298 1.6
16 1 -115.892 0.849742 2.15506e-07 86.7159 -1.70411 93.2841 129.271
Tx-D-Rx 
12.0458 -18.3613 5.3
-24.5804 26.433 1.97977
-31.1957 26.6298 1.6
17 1 -115.968 137.511 2.09396e-07 86.6199 -49.4405 93.3801 141.598
Tx-D-Rx 
12.0458 -18.3613 5.3
-2.67641 -6.69178 4.19045
-31.1957 26.6298 1.6
18 1 -116.035 69.7034 4.45228e-07 87.6777 8.37585 90.7409 63.5993
Tx-D-Rx 
12.0458 -18.3613 5.3
39.5512 37.0464 4.5
-31.1957 26.6298 1.6
19 1 -117.021 -35.3687 5.34146e-07 88.6756 -98.8147 91.3244 -143.017
Tx-D-Rx 
12.0458 -18.3613 5.3
-44.8125 -61.1806 3.65439
-31.1957 26.6298 1.6
20 1 -117.129 51.2279 2.40942e-07 87.0629 -86.1324 92.9371 156.306
Tx-D-Rx 
12.0458 -18.3613 5.3
-29.3832 -0.180724 2.97872
-31.1957 26.6298 1.6
21 1 -117.314 6.75905 3.06874e-07 87.6943 -6.92843 92.3057 77.4219
Tx-D-Rx 
12.0458 -18.3613 5.3
20.6779 20.3263 3.70399
-31.1957 26.6298 1.6
22 1 -117.886 123.041 5.34147e-07 88.6756 -98.7911 91.3244 -142.987
Tx-D-Rx 
12.0458 -18.3613 5.3
-44.7786 -61.201 3.65474
-31.1957 26.6298 1.6
23 1 -118.007 -157.251 2.27286e-07 84.2676 -66.0658 89.6058 160.965
Tx-D-Rx 
12.0458 -18.3613 5.3
-15.4344 -8.88034 5.5
-31.1957 26.6298 1.6
24 1 -118.487 -93.5121 2.09853e-07 86.6273 -40.1906 93.3727 127.157
Tx-D-Rx 
12.0458 -18.3613 5.3
-5.77742 5.15686 3.56095
-31.1957 26.6298 1.6
25 4 -120.533 -60.285 4.80634e-07 88.5281 10.3325 91.4719 61.1749
Tx-F-X-D-R-Rx 
12.0458 -18.3613 5.3
38.3494 29.4352 3.89817
40.5533 33.4398 3.78072
41.3925 34.9649 3.73599
44.4386 40.4192 3.57547
-31.1957 26.6298 1.6
3 25
-78.9089 2.04818e-07 5.39712e-08
1 0 -84.2074 -132.005 1.92187e-07 86.3169 -47.804 93.6831 132.196
Tx-Rx 
12.0458 -18.3613 5.3
-26.5608 24.2219 1.6
2 1 -90.5647 169.046 2.16874e-07 86.7366 123.183 93.2634 131.649
Tx-R-Rx 
12.0458 -18.3613 5.3
-28.601 27.3417 1.81254
-26.5608 24.2219 1.6
3 1 -104.001 -97.646 2.21251e-07 94.7408 88.0821 93.8426 129.053
Tx-DS-Rx 
12.0458 -18.3613 5.3
-26.4 29.0254 1.20141
-26.5608 24.2219 1.6
4 2 -105.832 163.897 4.78321e-07 88.521 66.018 91.479 62.3369
Tx-R-R-Rx 
12.0458 -18.3613 5.3
43.5264 41.6945 3.54927
-23.4047 31.3168 1.8005
-26.5608 24.2219 1.6
5 3 -106.988 -84.2636 5.09493e-07 88.6115 -109.661 91.3885 -136.929
Tx-R-D-R-Rx 
12.0458 -18.3613 5.3
9.33618 -20.8943 5.21009
-53.6964 -50.282 3.52437
-52.8635 -49.398 3.49493
-26.5608 24.2219 1.6
6 3 -107.276 -173.676 2.18147e-07 77.8684 116.464 92.703 131.234
Tx-F-X-DS-Rx 
12.0458 -18.3613 5.3
-5.81637 2.01827 4.02061
-6.10413 2.34658 4
-28.2482 27.6115 2.41392
-26.5608 24.2219 1.6
7 3 -109.363 -148.999 4.66957e-07 88.485 11.488 91.515 59.6625
Tx-F-X-R-Rx 
12.0458 -18.3613 5.3
39.4327 28.4355 3.86593
42.3614 33.4398 3.71258
45.5427 38.8758 3.546
-26.5608 24.2219 1.6
8 2 -111.02 -145.298 5.08913e-07 88.6099 -109.661 91.3901 -154.101
Tx-D-R-Rx 
12.0458 -18.3613 5.3
-53.6964 -50.282 3.52656
-52.8635 -49.398 3.49709
-26.5608 24.2219 1.6
9 1 -111.394 -174.564 2.16897e-07 86.7369 126.576 93.2631 131.855
Tx-D-Rx 
12.0458 -18.3613 5.3
-28.7763 27.2076 1.81196
-26.5608 24.2219 1.6
10 3 -112.398 46.5471 4.31195e-07 87.9801 9.73744 91.2184 62.2487
Tx-F-X-D-Rx 
12.0458 -18.3613 5.3
38.1841 31.3168 4.10609
38.9501 32.7726 4.0711
40.5067 35.7311 4
-26.5608 24.2219 1.6
11 2 -112.746 -109.271 9.08868e-07 89.2217 136.346 90.7783 135.23
Tx-R-R-Rx 
12.0458 -18.3613 5.3
-102.38 95.1492 3.11041
-104.288 98.3802 3.05943
-26.5608 24.2219 1.6
12 3 -114.211 100.657 1.97515e-07 86.4163 -12.7857 93.5837 127.213
Tx-F-X-D-Rx 
12.0458 -18.3613 5.3
-8.6909 8.94548 3.1526
-10.1645 10.8859 3
-18.9865 22.503 2.08643
-26.5608 24.2219 1.6
13 5 -114.815 60.1085 5.09126e-07 92.1634 -109.661 92.1634 -154.101
Tx-D-R-F-R-X-Rx 
12.0458 -18.3613 5.3
-53.6964 -50.282 2.53919
-52.8635 -49.398 2.49331
-36.0905 -2.451 0.61
-35.7342 -1.45388 0.57
-35.378 -0.456765 0.61
-26.5608 24.2219 1.6
14 4 -115.013 27.638 9.06944e-07 89.22 -89.7045 90.78 -138.228
Tx-R-R-R-D-Rx 
12.0458 -18.3613 5.3
8.81865 -21.2438 5.24109
-94.1952 -72.146 3.67681
-97.1619 -78.0141 3.58729
-26.2175 -42.3473 2.50628
-26.5608 24.2219 1.6
15 1 -115.478 67.3035 1.93402e-07 86.34 -56.4066 93.66 137.011
Tx-D-Rx 
12.0458 -18.3613 5.3
-15.0566 6.90237 2.92999
-26.5608 24.2219 1.6
16 1 -115.694 -116.608 1.92965e-07 86.3317 -42.5308 93.6683 127.157
Tx-D-Rx 
12.0458 -18.3613 5.3
-5.77742 5.15686 3.40815
-26.5608 24.2219 1.6
17 1 -115.881 -160.583 1.9343e-07 86.3405 -52.3097 93.6595 141.598
Tx-D-Rx 
12.0458 -18.3613 5.3
-2.67641 -6.69178 4.0985
-26.5608 24.2219 1.6
18 1 -116.023 -67.7945 1.93837e-07 86.3482 -54.9241 93.6518 140.086
Tx-D-Rx 
12.0458 -18.3613 5.3
-9.05333 -0.71102 3.54438
-26.5608 24.2219 1.6
19 1 -116.624 -33.3553 9.08873e-07 89.2217 136.599 90.7783 135.065
Tx-D-Rx 
12.0458 -18.3613 5.3
-104.663 98.0824 3.06033
-26.5608 24.2219 1.6
20 3 -116.821 -128.732 1.97518e-07 86.4164 -12.8786 93.5836 127.197
Tx-F-X-D-Rx 
12.0458 -18.3613 5.3
-8.68203 8.94992 3.15274
-10.1564 10.8926 3
-18.9525 22.4824 2.08879
-26.5608 24.2219 1.6
21 1 -117.523 -83.0332 1.9382e-07 86.3479 -55.7734 93.6521 139.175
Tx-D-Rx 
12.0458 -18.3613 5.3
-11.3315 1.83496 3.32818
-26.5608 24.2219 1.6
22 3 -118.126 123.855 4.36266e-07 88.3784 32.7534 91.6216 82.8723
Tx-F-X-D-Rx 
12.0458 -18.3613 5.3
16.0567 13.714 4.38487
16.5299 17.4978 4.27691
21.2139 54.9557 3.20821
-26.5608 24.2219 1.6
23 1 -118.598 -15.3178 2.88181e-07 88.28 42.4316 92.7477 109.82
Tx-DS-Rx 
12.0458 -18.3613 5.3
-9.06609 40.2145 2.31177
-26.5608 24.2219 1.6
24 3 -118.661 -179.844 4.31231e-07 87.5598 9.73174 90.7499 62.2423
Tx-F-X-D-Rx 
12.0458 -18.3613 5.3
38.1396 31.2189 4.56665
38.9596 32.7769 4.54361
40.5112 35.725 4.5
-26.5608 24.2219 1.6
25 1 -118.745 169.109 4.49484e-07 88.4261 12.1391 91.5739 62.4783
Tx-D-Rx 
12.0458 -18.3613 5.3
41.9073 38.9491 3.52433
-26.5608 24.2219 1.6
4 25
-82.7614 1.90085e-07 5.54674e-08
1 0 -83.4122 139.764 1.76417e-07 85.9871 -50.2822 94.0129 129.718
Tx-Rx 
12.0458 -18.3613 5.3
-21.6565 22.2076 1.6
2 1 -101.586 45.5489 1.79669e-07 86.0598 -66.6297 93.9402 137.029
Tx-D-Rx 
12.0458 -18.3613 5.3
-15.0217 6.85381 2.75204
-21.6565 22.2076 1.6
3 2 -101.749 -69.5359 4.72603e-07 88.5031 67.0653 91.4969 63.2998
Tx-R-R-Rx 
12.0458 -18.3613 5.3
42.7776 42.7415 3.51267
-16.4218 34.5789 1.95104
-21.6565 22.2076 1.6
4 2 -102.224 -149.784 2.31651e-07 86.945 125.267 93.055 129.089
Tx-D-R-Rx 
12.0458 -18.3613 5.3
-24.479 26.6007 2.20833
-26.4505 28.9868 2.04314
-21.6565 22.2076 1.6
5 1 -102.991 -149.188 1.79669e-07 86.0598 -66.6736 93.9402 137.011
Tx-D-Rx 
12.0458 -18.3613 5.3
-15.0566 6.90237 2.74802
-21.6565 22.2076 1.6
6 1 -103.023 6.7165 2.2139e-07 86.8032 -91.8067 93.1968 163.05
Tx-D-Rx 
12.0458 -18.3613 5.3
-22.603 -7.80141 3.2769
-21.6565 22.2076 1.6
7 2 -104.523 174.04 2.31652e-07 86.945 126.26 93.055 129.284
Tx-D-R-Rx 
12.0458 -18.3613 5.3
-24.6144 26.4537 2.20987
-26.5648 28.8994 2.04292
-21.6565 22.2076 1.6
8 1 -105.15 169.646 1.80023e-07 86.0676 -44.6276 93.9324 106.456
Tx-D-Rx 
12.0458 -18.3613 5.3
9.00137 -8.05422 4.56122
-21.6565 22.2076 1.6
9 3 -106.238 -106.595 4.17657e-07 88.3061 11.3392 91.6939 61.1042
Tx-F-X-D-Rx 
12.0458 -18.3613 5.3
38.3873 29.3647 3.68791
40.6365 33.4398 3.55026
41.4181 34.856 3.50242
-21.6565 22.2076 1.6
10 3 -106.938 104.134 2.35113e-07 92.5626 110.74 93.8339 127.071
Tx-F-X-DS-Rx 
12.0458 -18.3613 5.3
-8.61366 8.9841 3.0033
-8.64335 9.02341 3
-24.7237 30.3078 1.21236
-21.6565 22.2076 1.6
11 3 -107.127 -162.364 4.35613e-07 88.3759 12.4067 91.6241 59.9875
Tx-F-X-D-Rx 
12.0458 -18.3613 5.3
39.1981 28.644 3.7609
41.9683 33.4398 3.60387
43.7976 36.6067 3.50018
-21.6565 22.2076 1.6
12 1 -107.176 135.68 2.21391e-07 86.8032 -91.9927 93.1968 162.898
Tx-D-Rx 
12.0458 -18.3613 5.3
-22.6961 -7.67192 3.26984
-21.6565 22.2076 1.6
13 1 -107.197 -24.9986 1.80023e-07 86.0676 -44.6175 93.9324 106.491
Tx-D-Rx 
12.0458 -18.3613 5.3
8.98706 -8.02947 4.55931
-21.6565 22.2076 1.6
14 3 -107.333 64.1304 4.17658e-07 88.3061 11.37 91.6939 61.1368
Tx-F-X-D-Rx 
12.0458 -18.3613 5.3
38.3691 29.3959 3.68736
40.5981 33.4398 3.55081
41.3956 34.8868 3.50195
-21.6565 22.2076 1.6
15 3 -107.523 129.888 4.5062e-07 88.43 13.2355 91.57 59.1374
Tx-F-X-D-Rx 
12.0458 -18.3613 5.3
39.8439 28.1549 3.81479
42.7706 33.0522 3.65842
45.7666 38.0656 3.49835
-21.6565 22.2076 1.6
16 3 -108.218 9.88096 4.35613e-07 88.3759 12.4366 91.6241 60.0189
Tx-F-X-D-Rx 
12.0458 -18.3613 5.3
39.1753 28.6643 3.76073
41.9303 33.4398 3.60441
43.7751 36.6375 3.49974
-21.6565 22.2076 1.6
17 1 -109.456 18.2383 2.10292e-07 86.6343 123.526 93.3657 129.173
Tx-D-Rx 
12.0458 -18.3613 5.3
-24.4734 26.4593 1.89994
-21.6565 22.2076 1.6
18 1 -109.759 -75.009 1.76639e-07 85.9921 -47.0378 94.0079 127.157
Tx-D-Rx 
12.0458 -18.3613 5.3
-5.77742 5.15686 3.23248
-21.6565 22.2076 1.6
19 1 -112.402 173.144 3.41528e-07 87.9284 -91.2861 92.0716 -149.241
Tx-D-Rx 
12.0458 -18.3613 5.3
-23.036 -39.2398 3.82327
-21.6565 22.2076 1.6
20 1 -112.518 -147.746 2.81205e-07 88.3056 55.2686 92.8158 110.073
Tx-DS-Rx 
12.0458 -18.3613 5.3
-9.29463 40.0394 2.24186
-21.6565 22.2076 1.6
21 2 -112.555 -72.7651 4.56261e-07 88.4495 21.4831 91.5505 64.8266
Tx-R-D-Rx 
12.0458 -18.3613 5.3
41.5624 44.4404 3.42164
32.1964 43.4025 3.16656
-21.6565 22.2076 1.6
22 1 -112.687 131.177 2.10295e-07 86.6344 123.974 93.3656 129.212
Tx-D-Rx 
12.0458 -18.3613 5.3
-24.5057 26.436 1.89985
-21.6565 22.2076 1.6
23 3 -112.806 46.942 4.72604e-07 88.5031 66.926 91.4969 63.4771
Tx-D-R-R-Rx 
12.0458 -18.3613 5.3
39.869 37.3877 3.67181
42.6607 42.9049 3.51023
-16.3691 34.6193 1.95255
-21.6565 22.2076 1.6
24 7 -112.847 28.1558 2.37812e-07 69.4907 136.659 90.5209 130.671
Tx-F-X-F-X-DS-F-X-Rx 
12.0458 -18.3613 5.3
-5.50924 2.06946 5.0551
-8.96216 6.08801 5.00694
-24.804 24.5249 4.78594
-26.14 26.0798 4.7673
-27.7703 27.9771 4.74456
-26.1796 26.476 3.92642
-24.3784 24.7763 3
-21.6565 22.2076 1.6
25 1 -112.911 -80.9334 1.79486e-07 86.0558 -61.1933 93.9442 140.086
Tx-D-Rx 
12.0458 -18.3613 5.3
-9.05333 -0.71102 3.40336
-21.6565 22.2076 1.6
5 25
-84.9106 1.77671e-07 5.7419e-08
1 0 -82.4033 -34.86 1.58129e-07 85.5221 -50.3832 94.4779 129.617
Tx-Rx 
12.0458 -18.3613 5.3
-18.0806 18.0335 1.6
2 1 -91.5986 63.0585 2.49903e-07 87.1683 126.026 92.8317 128.806
Tx-R-Rx 
12.0458 -18.3613 5.3
-26.1907 29.1855 2.28205
-18.0806 18.0335 1.6
3 2 -96.1985 152.284 2.49906e-07 87.1683 126.754 92.8317 128.927
Tx-R-D-Rx 
12.0458 -18.3613 5.3
-26.2935 29.1069 2.28193
-24.479 26.6007 2.12889
-18.0806 18.0335 1.6
4 1 -96.6222 141.258 1.62106e-07 85.6322 -67.3809 94.3678 139.175
Tx-D-Rx 
12.0458 -18.3613 5.3
-11.3315 1.83496 2.94036
-18.0806 18.0335 1.6
5 1 -97.7518 -46.6411 1.62107e-07 85.6322 -67.3369 94.3678 139.201
Tx-D-Rx 
12.0458 -18.3613 5.3
-11.2966 1.7864 2.9448
-18.0806 18.0335 1.6
6 2 -101.809 -97.4069 4.81057e-07 88.5294 69.0215 91.4706 65.256
Tx-R-R-Rx 
12.0458 -18.3613 5.3
41.2141 44.9273 3.51097
-9.7876 39.6618 2.19467
-18.0806 18.0335 1.6
7 3 -104.148 154.934 4.44103e-07 88.407 14.8289 91.593 56.3216
Tx-F-X-R-Rx 
12.0458 -18.3613 5.3
45.3338 31.5928 3.63057
46.6608 33.5842 3.56402
47.947 35.5143 3.49951
-18.0806 18.0335 1.6
8 1 -106.557 -8.09865 1.61804e-07 85.624 -43.9287 94.376 106.456
Tx-D-Rx 
12.0458 -18.3613 5.3
9.00137 -8.05422 4.47757
-18.0806 18.0335 1.6
9 1 -107.718 72.228 1.6168e-07 85.6206 -64.2848 94.3794 140.086
Tx-D-Rx 
12.0458 -18.3613 5.3
-9.05333 -0.71102 3.19332
-18.0806 18.0335 1.6
10 3 -108.784 99.8925 6.68486e-07 88.9418 -19.0867 91.0582 63.1104
Tx-R-R-R-Rx 
12.0458 -18.3613 5.3
39.8997 36.5666 4.1624
-24.4513 26.5046 2.95929
12.336 7.5087 2.19453
-18.0806 18.0335 1.6
11 1 -109.013 90.4055 1.5837e-07 85.5289 -46.3047 94.4711 127.157
Tx-D-Rx 
12.0458 -18.3613 5.3
-5.77742 5.15686 2.99259
-18.0806 18.0335 1.6
12 1 -109.245 150.306 1.61805e-07 85.624 -43.9167 94.376 106.491
Tx-D-Rx 
12.0458 -18.3613 5.3
8.98706 -8.02947 4.47545
-18.0806 18.0335 1.6
13 1 -110.914 162.844 2.52292e-07 91.7358 117.532 93.8678 126.864
Tx-DS-Rx 
12.0458 -18.3613 5.3
-24.5488 30.4416 1.17596
-18.0806 18.0335 1.6
14 1 -111.402 -146.361 1.61682e-07 85.6207 -64.2653 94.3793 140.106
Tx-D-Rx 
12.0458 -18.3613 5.3
-9.03003 -0.743088 3.19629
-18.0806 18.0335 1.6
15 1 -111.625 78.0158 2.83826e-07 89.8135 70.092 93.3604 111.333
Tx-DS-Rx 
12.0458 -18.3613 5.3
-10.4246 39.1737 1.67321
-18.0806 18.0335 1.6
16 3 -112.118 34.8514 4.81059e-07 88.5294 68.8218 91.4706 65.3369
Tx-R-D-R-Rx 
12.0458 -18.3613 5.3
41.1482 45.0194 3.50953
8.47454 41.6928 2.66638
-9.66444 39.7561 2.19806
-18.0806 18.0335 1.6
17 2 -112.128 97.3538 6.27496e-07 88.8726 -117.267 91.1274 172.868
Tx-R-D-Rx 
12.0458 -18.3613 5.3
-59.1683 -9.45009 3.88768
-52.8218 -49.3704 3.09224
-18.0806 18.0335 1.6
18 1 -112.579 -62.7193 3.28267e-07 87.8446 -94.9096 92.1554 -149.192
Tx-D-Rx 
12.0458 -18.3613 5.3
-23.0021 -39.2603 3.76424
-18.0806 18.0335 1.6
19 1 -113.609 2.83216 1.60363e-07 85.5846 -58.0765 94.4154 141.598
Tx-D-Rx 
12.0458 -18.3613 5.3
-2.67641 -6.69178 3.8494
-18.0806 18.0335 1.6
20 1 -113.793 35.3426 3.28271e-07 87.8447 -94.945 92.1553 -149.241
Tx-D-Rx 
12.0458 -18.3613 5.3
-23.036 -39.2398 3.76355
-18.0806 18.0335 1.6
21 1 -113.912 16.6913 2.03332e-07 86.519 -90.4762 93.481 167.62
Tx-D-Rx 
12.0458 -18.3613 5.3
-18.3277 -11.6942 3.4084
-18.0806 18.0335 1.6
22 1 -114.709 126.741 1.59294e-07 85.5549 -38.2987 94.4451 125.622
Tx-D-Rx 
12.0458 -18.3613 5.3
-8.75438 10.6685 2.52381
-18.0806 18.0335 1.6
23 3 -115.156 -82.0951 6.68486e-07 88.9418 -19.0963 91.0582 63.1048
Tx-R-D-R-Rx 
12.0458 -18.3613 5.3
39.9037 36.5612 4.16246
-24.4534 26.4918 2.95922
12.3339 7.50374 2.19452
-18.0806 18.0335 1.6
24 7 -115.191 -68.2744 2.58611e-07 66.7417 133.721 87.8803 130.548
Tx-F-X-F-X-DS-F-X-Rx 
12.0458 -18.3613 5.3
-5.44277 2.08054 6.2957
-8.94915 6.17905 6.49533
-24.6799 24.5663 7.39095
-26.1619 26.2985 7.47533
-27.6662 28.0568 7.56097
-26.1826 26.5054 6.63836
-24.4131 24.6552 5.53801
-18.0806 18.0335 1.6
25 1 -116.37 -63.9423 1.62578e-07 85.6449 -74.6979 94.3551 137.029
Tx-D-Rx 
12.0458 -18.3613 5.3
-15.0217 6.85381 2.48272
-18.0806 18.0335 1.6
6 25
-79.1078 1.50535e-07 4.80335e-08
1 0 -81.2832 -130.15 1.39855e-07 84.9356 -50.1031 95.0644 129.897
Tx-Rx 
12.0458 -18.3613 5.3
-14.7333 13.6696 1.6
2 1 -90.9678 -114.407 1.43909e-07 85.0786 -68.4107 94.9214 140.106
Tx-D-Rx 
12.0458 -18.3613 5.3
-9.03003 -0.743088 2.93466
-14.7333 13.6696 1.6
3 1 -91.916 60.7137 1.43909e-07 85.0786 -68.4473 94.9214 140.086
Tx-D-Rx 
12.0458 -18.3613 5.3
-9.05333 -0.71102 2.93135
-14.7333 13.6696 1.6
4 5 -95.1691 163.496 2.68228e-07 87.3619 126.126 92.6381 128.705
Tx-F-X-F-X-R-Rx 
12.0458 -18.3613 5.3
-4.49084 2.27572 4.0815
-5.59697 3.65612 4
-14.644 14.9464 3.33337
-14.8085 15.1517 3.32125
-26.1059 29.2504 2.48881
-14.7333 13.6696 1.6
5 2 -101.896 -124.156 4.90901e-07 88.5589 70.8481 91.4411 67.0826
Tx-R-R-Rx 
12.0458 -18.3613 5.3
39.6985 47.0463 3.5135
-4.22656 43.9224 2.40568
-14.7333 13.6696 1.6
6 4 -102.238 147.157 2.68236e-07 87.362 127.004 92.638 128.927
Tx-F-X-R-D-Rx 
12.0458 -18.3613 5.3
-4.59027 2.23595 4.0801
-5.68256 3.58833 4
-26.2935 29.1069 2.48862
-24.479 26.6007 2.34606
-14.7333 13.6696 1.6
7 2 -106.729 147.608 6.53436e-07 88.9174 -155.247 91.0826 -156.823
Tx-R-R-Rx 
12.0458 -18.3613 5.3
-76.2693 -56.1717 3.48458
-54.5712 -4.69825 2.42899
-14.7333 13.6696 1.6
8 1 -107.021 -116.638 1.89638e-07 86.2673 -98.0351 93.7327 167.644
Tx-D-Rx 
12.0458 -18.3613 5.3
-18.316 -11.7102 3.27221
-14.7333 13.6696 1.6
9 1 -107.834 115.972 2.26098e-07 86.8699 -85.0405 93.1301 -156.181
Tx-D-Rx 
12.0458 -18.3613 5.3
-11.0683 -28.5651 3.91831
-14.7333 13.6696 1.6
10 1 -108.39 23.708 1.8964e-07 86.2673 -98.0659 93.7327 167.62
Tx-D-Rx 
12.0458 -18.3613 5.3
-18.3277 -11.6942 3.27126
-14.7333 13.6696 1.6
11 1 -108.997 -102.352 2.261e-07 86.8699 -85.0199 93.1301 -156.145
Tx-D-Rx 
12.0458 -18.3613 5.3
-11.0522 -28.5751 3.91891
-14.7333 13.6696 1.6
12 1 -109.709 -69.1243 1.40236e-07 84.9494 -43.5468 95.0506 127.157
Tx-D-Rx 
12.0458 -18.3613 5.3
-5.77742 5.15686 2.69203
-14.7333 13.6696 1.6
13 1 -111.455 -134.717 3.0156e-07 88.8854 77.4385 92.9058 109.491
Tx-DS-Rx 
12.0458 -18.3613 5.3
-8.76752 40.4433 2.13369
-14.7333 13.6696 1.6
14 1 -111.764 176.482 1.42179e-07 85.0185 -59.3683 94.9815 141.598
Tx-D-Rx 
12.0458 -18.3613 5.3
-2.67641 -6.69178 3.66255
-14.7333 13.6696 1.6
15 1 -112.419 146.304 1.51559e-07 85.3276 -73.387 94.6724 152.113
Tx-D-Rx 
12.0458 -18.3613 5.3
-8.40546 -7.53907 3.4089
-14.7333 13.6696 1.6
16 1 -113.098 -3.4863 1.44691e-07 85.1052 -73.8698 94.8948 139.201
Tx-D-Rx 
12.0458 -18.3613 5.3
-11.2966 1.7864 2.65935
-14.7333 13.6696 1.6
17 3 -113.35 150.132 2.7058e-07 91.0058 118.483 93.7912 126.266
Tx-F-X-DS-Rx 
12.0458 -18.3613 5.3
-8.17696 9.20245 3.03462
-8.48601 9.62369 3
-24.0432 30.8283 1.25726
-14.7333 13.6696 1.6
18 1 -115.049 -15.2245 1.49063e-07 85.2492 -14.463 94.7508 118.49
Tx-D-Rx 
12.0458 -18.3613 5.3
-3.8089 10.8519 2.53762
-14.7333 13.6696 1.6
19 4 -115.225 161.755 2.71683e-07 87.3955 119.254 92.6045 116.513
Tx-F-X-D-R-Rx 
12.0458 -18.3613 5.3
0.351634 5.08053 4.10833
-0.71144 7.21155 4
-1.0853 7.96098 3.9619
-24.2539 30.6671 2.48623
-14.7333 13.6696 1.6
20 1 -115.289 -124.596 1.42022e-07 85.013 -26.6543 94.987 125.622
Tx-D-Rx 
12.0458 -18.3613 5.3
-8.75438 10.6685 2.18375
-14.7333 13.6696 1.6
21 5 -115.604 127.235 2.78536e-07 66.5852 129.705 85.637 129.836
Tx-F-X-DS-F-X-Rx 
12.0458 -18.3613 5.3
-5.06072 2.14421 7.33742
-8.87277 6.7137 7.79144
-27.063 28.5182 9.95794
-24.1746 25.0398 8
-23.9762 24.8008 7.86551
-14.7333 13.6696 1.6
22 1 -115.777 -94.8268 1.51562e-07 85.3277 -73.37 94.6723 152.135
Tx-D-Rx 
12.0458 -18.3613 5.3
-8.39381 -7.5551 3.4104
-14.7333 13.6696 1.6
23 1 -115.786 -34.1686 2.26826e-07 86.8799 88.8291 93.1201 119.695
Tx-D-Rx 
12.0458 -18.3613 5.3
-14.4387 28.0811 2.38573
-14.7333 13.6696 1.6
24 4 -116.668 -35.8156 2.71684e-07 87.3955 119.231 92.6045 116.55
Tx-F-X-D-R-Rx 
12.0458 -18.3613 5.3
0.335773 5.07443 4.10826
-0.72799 7.20338 4
-1.15506 8.05809 3.95654
-24.2477 30.6719 2.48628
-14.7333 13.6696 1.6
25 1 -117.589 -26.3381 4.52192e-07 86.9182 29.7099 90.2071 65.6702
Tx-DS-Rx 
12.0458 -18.3613 5.3
40.8754 45.4009 5.04702
-14.7333 13.6696 1.6
7 25
-81.1202 1.28802e-07 4.08441e-08
1 0 -80.0216 -141.915 1.21595e-07 84.1725 -49.8883 95.8275 130.112
Tx-Rx 
12.0458 -18.3613 5.3
-11.3113 9.36462 1.6
2 1 -89.3225 56.5369 1.35001e-07 84.753 -80.2166 95.247 152.135
Tx-D-Rx 
12.0458 -18.3613 5.3
-8.39381 -7.5551 3.17675
-11.3113 9.36462 1.6
3 1 -90.0022 -126.429 1.35001e-07 84.753 -80.2458 95.247 152.113
Tx-D-Rx 
12.0458 -18.3613 5.3
-8.40546 -7.53907 3.17512
-11.3113 9.36462 1.6
4 4 -102.622 -22.6078 4.11661e-07 88.2814 -3.34917 91.7186 117.964
Tx-F-X-R-R-Rx 
12.0458 -18.3613 5.3
-0.272187 4.8406 4.51183
-3.3875 10.7085 4.31249
-16.1649 34.7757 3.49493
12.5334 7.96921 2.31666
-11.3113 9.36462 1.6
5 7 -103.658 75.6921 2.86545e-07 87.5306 126.277 92.4694 128.555
Tx-F-X-F-X-F-X-R-Rx 
12.0458 -18.3613 5.3
-4.42331 2.30273 4.16045
-6.74222 5.21231 4
-14.2866 14.6784 3.47798
-14.8354 15.3669 3.44001
-19.1375 20.7649 3.14233
-20.9643 23.057 3.01593
-25.9782 29.3481 2.669
-11.3113 9.36462 1.6
6 4 -105.236 -17.586 5.00961e-07 88.5878 72.6215 91.4122 68.856
Tx-F-X-R-R-Rx 
12.0458 -18.3613 5.3
25.7139 16.9797 4.36589
26.5358 19.1049 4.30972
38.1691 49.1844 3.51468
0.680949 47.6824 2.58978
-11.3113 9.36462 1.6
7 1 -108.802 -167.877 2.11228e-07 86.6493 -89.6086 93.3507 -156.145
Tx-D-Rx 
12.0458 -18.3613 5.3
-11.0522 -28.5751 3.82135
-11.3113 9.36462 1.6
8 1 -108.866 9.57497 1.24131e-07 84.292 -61.7293 95.708 141.598
Tx-D-Rx 
12.0458 -18.3613 5.3
-2.67641 -6.69178 3.42225
-11.3113 9.36462 1.6
9 1 -109.701 125.762 2.03996e-07 86.5303 -106.132 93.4697 -178.935
Tx-D-Rx 
12.0458 -18.3613 5.3
-19.5004 -18.9477 3.38698
-11.3113 9.36462 1.6
10 1 -109.789 100.512 1.26836e-07 84.4142 -77.2816 95.5858 140.106
Tx-D-Rx 
12.0458 -18.3613 5.3
-9.03003 -0.743088 2.61341
-11.3113 9.36462 1.6
11 1 -109.865 141.547 1.25754e-07 84.3659 -40.6143 95.6341 106.456
Tx-D-Rx 
12.0458 -18.3613 5.3
9.00137 -8.05422 4.23977
-11.3113 9.36462 1.6
12 1 -110.152 -36.9986 2.11231e-07 86.6493 -89.6329 93.3507 -156.181
Tx-D-Rx 
12.0458 -18.3613 5.3
-11.0683 -28.5651 3.82073
-11.3113 9.36462 1.6
13 1 -110.679 -85.3008 1.22284e-07 84.2055 -37.248 95.7945 127.157
Tx-D-Rx 
12.0458 -18.3613 5.3
-5.77742 5.15686 2.30547
-11.3113 9.36462 1.6
14 1 -111.228 -111.719 2.03998e-07 86.5304 -106.102 93.4696 -178.906
Tx-D-Rx 
12.0458 -18.3613 5.3
-19.4888 -18.9637 3.38769
-11.3113 9.36462 1.6
15 1 -111.917 75.7708 3.2004e-07 89.1092 83.4025 92.9148 108.231
Tx-DS-Rx 
12.0458 -18.3613 5.3
-7.61459 41.3266 2.10027
-11.3113 9.36462 1.6
16 6 -112.455 -157.351 2.86563e-07 87.5308 127.378 92.4692 128.927
Tx-F-X-F-X-R-D-Rx 
12.0458 -18.3613 5.3
-4.59027 2.23595 4.15826
-6.89632 5.09109 4
-19.7099 20.9556 3.1206
-21.1018 22.679 3.02508
-26.2935 29.1069 2.66877
-24.479 26.6007 2.53534
-11.3113 9.36462 1.6
17 2 -113.668 62.3007 9.79899e-07 89.2781 136.303 90.7219 135.187
Tx-R-R-Rx 
12.0458 -18.3613 5.3
-102.973 95.9102 3.2571
-104.387 98.3016 3.22209
-11.3113 9.36462 1.6
18 1 -114.803 110.248 1.29768e-07 84.5407 -71.287 95.4593 149.828
Tx-D-Rx 
12.0458 -18.3613 5.3
-5.34414 -8.25152 3.37757
-11.3113 9.36462 1.6
19 1 -114.867 -154.206 9.79901e-07 89.2781 136.458 90.7219 135.065
Tx-D-Rx 
12.0458 -18.3613 5.3
-104.663 98.0824 3.2227
-11.3113 9.36462 1.6
20 4 -115.294 66.885 4.11664e-07 87.8422 -3.34395 91.613 117.963
Tx-F-X-R-D-Rx 
12.0458 -18.3613 5.3
-0.271647 4.84081 4.56026
-3.38703 10.7092 4.37316
-16.1638 34.7766 3.60584
12.5343 7.97134 2.5
-11.3113 9.36462 1.6
21 1 -115.381 -56.0662 1.36976e-07 84.8288 11.1162 95.1712 118.473
Tx-D-Rx 
12.0458 -18.3613 5.3
-3.79277 10.8419 2.29344
-11.3113 9.36462 1.6
22 3 -115.468 150.258 2.88561e-07 90.8235 120.311 93.8062 126.116
Tx-F-X-DS-Rx 
12.0458 -18.3613 5.3
-8.09559 9.24314 3.02665
-8.33168 9.56671 3
-23.916 30.9256 1.24099
-11.3113 9.36462 1.6
23 1 -115.583 -53.2339 2.22214e-07 86.8151 -17.5713 93.1849 39.2128
Tx-D-Rx 
12.0458 -18.3613 5.3
29.9948 -3.71572 4.01095
-11.3113 9.36462 1.6
24 1 -115.852 -96.0796 1.25757e-07 84.3661 -40.594 95.6339 106.491
Tx-D-Rx 
12.0458 -18.3613 5.3
8.98706 -8.02947 4.23705
-11.3113 9.36462 1.6
25 3 -116.04 157.292 5.02572e-07 88.5924 74.6575 91.4076 58.5282
Tx-D-R-R-Rx 
12.0458 -18.3613 5.3
25.0475 2.879 4.68805
40.1365 46.4339 3.55537
-1.1919 46.2475 2.53981
-11.3113 9.36462 1.6
8 25
-81.1384 1.08806e-07 4.92878e-08
1 0 -78.5785 170.795 1.03404e-07 83.1428 -50.5142 96.8572 129.486
Tx-Rx 
12.0458 -18.3613 5.3
-7.51924 5.38493 1.6
2 1 -93.4887 11.2267 1.05048e-07 83.2507 -8.94227 96.7493 127.071
Tx-D-Rx 
12.0458 -18.3613 5.3
-5.67537 5.09479 1.8209
-7.51924 5.38493 1.6
3 1 -95.1924 -39.5105 1.06816e-07 83.3629 -68.149 96.6371 141.598
Tx-D-Rx 
12.0458 -18.3613 5.3
-2.67641 -6.69178 3.11403
-7.51924 5.38493 1.6
4 1 -96.8217 122.684 1.06817e-07 83.3629 -68.1064 96.6371 141.631
Tx-D-Rx 
12.0458 -18.3613 5.3
-2.65311 -6.72384 3.11849
-7.51924 5.38493 1.6
5 1 -100.185 94.8722 1.05052e-07 83.2509 -7.45984 96.7491 127.157
Tx-D-Rx 
12.0458 -18.3613 5.3
-5.77742 5.15686 1.80789
-7.51924 5.38493 1.6
6 3 -102.859 -29.743 6.60794e-07 88.9295 -157.923 91.0705 -132.79
Tx-R-R-R-Rx 
12.0458 -18.3613 5.3
10.3095 -20.237 5.25224
-78.4121 -54.0408 3.47807
-64.8623 -17.8723 2.75633
-7.51924 5.38493 1.6
7 1 -105.473 -29.851 2.06472e-07 86.572 -13.6361 93.428 39.2128
Tx-D-Rx 
12.0458 -18.3613 5.3
29.9948 -3.71572 3.91233
-7.51924 5.38493 1.6
8 4 -105.655 -103.996 5.10104e-07 88.6132 74.4242 91.3868 70.6587
Tx-F-X-R-R-Rx 
12.0458 -18.3613 5.3
24.5412 17.2377 4.38661
25.3805 19.6287 4.32526
36.5495 51.4488 3.50883
5.24618 51.1801 2.75096
-7.51924 5.38493 1.6
9 1 -106.09 -28.7691 1.13862e-07 83.7753 -80.8266 96.2247 149.898
Tx-D-Rx 
12.0458 -18.3613 5.3
-5.30926 -8.30007 3.11198
-7.51924 5.38493 1.6
10 1 -106.904 74.5647 2.06476e-07 86.5721 -13.6862 93.4279 39.1281
Tx-D-Rx 
12.0458 -18.3613 5.3
30.0038 -3.75261 3.91333
-7.51924 5.38493 1.6
11 1 -107.493 107.661 1.13393e-07 83.7494 -103.849 96.2506 140.106
Tx-D-Rx 
12.0458 -18.3613 5.3
-9.03003 -0.743088 2.29129
-7.51924 5.38493 1.6
12 1 -108.26 77.1076 1.13866e-07 83.7755 -80.9373 96.2245 149.828
Tx-D-Rx 
12.0458 -18.3613 5.3
-5.34414 -8.25152 3.1061
-7.51924 5.38493 1.6
13 4 -109.457 6.98914 3.07168e-07 87.6965 121.29 92.3035 118.49
Tx-F-X-D-R-Rx 
12.0458 -18.3613 5.3
-0.499088 4.75333 4.2421
-3.37003 10.0432 4
-3.8089 10.8519 3.96299
-23.3195 31.382 2.82373
-7.51924 5.38493 1.6
14 1 -109.465 106.269 1.07632e-07 83.4134 -39.1276 96.5866 106.456
Tx-D-Rx 
12.0458 -18.3613 5.3
9.00137 -8.05422 4.05904
-7.51924 5.38493 1.6
15 4 -109.849 -172.104 3.07168e-07 87.6965 121.288 92.3035 118.494
Tx-F-X-D-R-Rx 
12.0458 -18.3613 5.3
-0.501016 4.75259 4.24209
-3.37224 10.042 4
-3.82055 10.8679 3.9622
-23.3184 31.3828 2.82373
-7.51924 5.38493 1.6
16 11 -111.677 -123.033 3.0473e-07 87.6781 126.718 92.3219 128.114
Tx-F-X-F-X-F-X-F-X-F-X-R-Rx 
12.0458 -18.3613 5.3
-4.22656 2.38143 4.23102
-7.74316 6.86411 4
-9.76262 9.43837 3.86733
-10.2828 10.1015 3.83316
-13.5519 14.2686 3.61841
-14.9154 16.0067 3.52883
-18.5343 20.6199 3.29109
-20.8002 23.5082 3.14224
-22.7729 26.0229 3.01264
-22.9654 26.2683 3
-25.6053 29.6334 2.82658
-7.51924 5.38493 1.6
17 1 -112.361 80.0149 9.98221e-07 89.2914 136.342 90.7086 135.065
Tx-D-Rx 
12.0458 -18.3613 5.3
-104.663 98.0824 3.26083
-7.51924 5.38493 1.6
18 1 -112.531 -39.7396 3.35554e-07 89.2666 89.1734 92.9335 107.561
Tx-DS-Rx 
12.0458 -18.3613 5.3
-6.9938 41.8023 2.06623
-7.51924 5.38493 1.6
19 1 -112.613 67.5318 1.13403e-07 83.75 -103.691 96.25 140.153
Tx-D-Rx 
12.0458 -18.3613 5.3
-9.02106 -0.77998 2.29491
-7.51924 5.38493 1.6
20 3 -112.722 113.86 4.00276e-07 88.2325 43.7945 91.7675 71.9792
Tx-F-X-D-Rx 
12.0458 -18.3613 5.3
23.8018 17.7754 4.12736
24.3127 19.3459 4.0764
32.1415 43.4109 3.2955
-7.51924 5.38493 1.6
21 3 -113.466 -88.9842 4.00277e-07 88.2325 43.7753 91.7675 71.963
Tx-F-X-D-Rx 
12.0458 -18.3613 5.3
23.811 17.7688 4.12748
24.3274 19.3547 4.07601
32.1576 43.4009 3.29564
-7.51924 5.38493 1.6
22 2 -113.901 -110.638 9.9822e-07 89.2914 136.253 90.7086 135.137
Tx-R-R-Rx 
12.0458 -18.3613 5.3
-103.653 96.7845 3.28101
-104.5 98.2124 3.26047
-7.51924 5.38493 1.6
23 1 -114.669 -41.9621 2.08225e-07 81.7333 -25.515 82.8211 16.562
Tx-DS-Rx 
12.0458 -18.3613 5.3
30.6441 -12.8303 7.74396
-7.51924 5.38493 1.6
24 1 -115.197 176.772 1.21053e-07 84.1464 -93.8666 95.8536 152.135
Tx-D-Rx 
12.0458 -18.3613 5.3
-8.39381 -7.5551 2.92966
-7.51924 5.38493 1.6
25 2 -115.811 -109.433 4.74645e-07 88.5095 65.9361 91.4905 65.3927
Tx-R-D-Rx 
12.0458 -18.3613 5.3
41.1027 45.0831 3.48431
8.75192 41.8211 2.63829
-7.51924 5.38493 1.6
9 25
-77.8876 9.63321e-08 4.55835e-08
1 0 -77.1366 -7.48921 8.78433e-08 81.9207 -54.9384 98.0793 125.062
Tx-Rx 
12.0458 -18.3613 5.3
-2.92738 2.97377 1.6
2 1 -93.5749 -172.676 1.89797e-07 86.2704 -11.5442 93.7296 39.1281
Tx-D-Rx 
12.0458 -18.3613 5.3
30.0038 -3.75261 3.79097
-2.92738 2.97377 1.6
3 1 -95.3601 -12.0427 1.89797e-07 86.2704 -11.4856 93.7296 39.2128
Tx-D-Rx 
12.0458 -18.3613 5.3
29.9948 -3.71572 3.78991
-2.92738 2.97377 1.6
4 1 -103.116 -160.731 9.09091e-08 82.1949 -42.753 97.8051 106.456
Tx-D-Rx 
12.0458 -18.3613 5.3
9.00137 -8.05422 3.82682
-2.92738 2.97377 1.6
5 1 -103.506 45.4806 1.89665e-07 86.2678 -96.0351 93.7322 -145.637
Tx-D-Rx 
12.0458 -18.3613 5.3
-6.52553 -31.06 3.83244
-2.92738 2.97377 1.6
6 1 -104.327 -80.1877 4.89518e-07 88.5548 -133.646 91.4452 -154.117
Tx-D-Rx 
12.0458 -18.3613 5.3
-53.7081 -50.2659 3.45616
-2.92738 2.97377 1.6
7 1 -104.591 -168.101 1.89667e-07 86.2678 -96.0065 93.7322 -145.592
Tx-D-Rx 
12.0458 -18.3613 5.3
-6.50939 -31.0699 3.83295
-2.92738 2.97377 1.6
8 1 -104.597 22.1255 4.7324e-07 88.5051 -133.547 91.4949 -154.732
Tx-D-Rx 
12.0458 -18.3613 5.3
-51.8939 -48.5423 3.45483
-2.92738 2.97377 1.6
9 1 -104.646 -50.3498 1.51348e-07 85.321 126.443 94.679 125.433
Tx-D-Rx 
12.0458 -18.3613 5.3
-8.61338 10.674 2.38343
-2.92738 2.97377 1.6
10 1 -105.259 -166.262 4.73241e-07 88.5051 -133.562 91.4949 -154.747
Tx-D-Rx 
12.0458 -18.3613 5.3
-51.9056 -48.5262 3.45473
-2.92738 2.97377 1.6
11 2 -105.462 18.8045 6.76029e-07 88.9536 -159.392 91.0464 -160.973
Tx-R-R-Rx 
12.0458 -18.3613 5.3
-81.7608 -50.7108 3.48757
-72.4327 -23.1632 2.95633
-2.92738 2.97377 1.6
12 1 -106.976 -14.2646 9.09107e-08 82.195 -42.7231 97.805 106.491
Tx-D-Rx 
12.0458 -18.3613 5.3
8.98706 -8.02947 3.82304
-2.92738 2.97377 1.6
13 1 -107.414 102.498 1.51349e-07 85.321 126.681 94.679 125.497
Tx-D-Rx 
12.0458 -18.3613 5.3
-8.64566 10.6507 2.38347
-2.92738 2.97377 1.6
14 1 -108.104 59.7678 2.33698e-07 86.9718 8.19607 93.0282 51.7768
Tx-D-Rx 
12.0458 -18.3613 5.3
32.9146 8.13617 3.51568
-2.92738 2.97377 1.6
15 1 -108.532 -137.36 1.16097e-07 83.8956 -148.367 96.1044 140.153
Tx-D-Rx 
12.0458 -18.3613 5.3
-9.02106 -0.77998 2.36543
-2.92738 2.97377 1.6
16 1 -109.491 -129.569 2.33699e-07 86.9718 8.15409 93.0282 51.7317
Tx-D-Rx 
12.0458 -18.3613 5.3
32.9289 8.11142 3.51624
-2.92738 2.97377 1.6
17 1 -109.874 131.588 1.7512e-07 85.9573 -136.342 94.0427 167.644
Tx-D-Rx 
12.0458 -18.3613 5.3
-18.316 -11.7102 3.10329
-2.92738 2.97377 1.6
18 3 -110.879 -95.4693 5.28699e-07 88.6619 81.7107 91.3381 39.2786
Tx-D-R-R-Rx 
12.0458 -18.3613 5.3
30.0008 -3.6765 4.75821
40.5721 45.8248 3.57589
3.95148 50.1881 2.71447
-2.92738 2.97377 1.6
19 3 -111.604 79.8175 5.28699e-07 88.6619 81.7162 91.3381 39.3108
Tx-D-R-R-Rx 
12.0458 -18.3613 5.3
30.0215 -3.64269 4.75733
40.5786 45.8157 3.57607
3.94619 50.1841 2.71435
-2.92738 2.97377 1.6
20 5 -111.749 155.521 5.14018e-07 88.6237 76.3339 91.3763 72.3546
Tx-D-F-X-R-R-Rx 
12.0458 -18.3613 5.3
17.0461 -2.6415 4.90368
23.8047 18.8837 4.36164
24.0326 19.6095 4.34336
34.7984 53.8969 3.47995
9.60605 54.5204 2.87451
-2.92738 2.97377 1.6
21 1 -111.818 -130.26 1.75124e-07 85.9574 -136.298 94.0426 167.675
Tx-D-Rx 
12.0458 -18.3613 5.3
-18.3115 -11.7287 3.10393
-2.92738 2.97377 1.6
22 3 -112.59 -54.125 5.23193e-07 88.6479 81.8756 91.3521 51.9011
Tx-D-R-R-Rx 
12.0458 -18.3613 5.3
32.9092 8.24788 4.50188
40.7644 45.556 3.60196
3.79569 50.0688 2.72289
-2.92738 2.97377 1.6
23 1 -112.651 -179.367 1.23695e-07 84.2718 -15.9488 95.7282 73.2641
Tx-D-Rx 
12.0458 -18.3613 5.3
16.7686 -2.65492 3.6548
-2.92738 2.97377 1.6
24 1 -113.036 -152.585 1.17382e-07 83.9626 -117.438 96.0374 152.135
Tx-D-Rx 
12.0458 -18.3613 5.3
-8.39381 -7.5551 2.85471
-2.92738 2.97377 1.6
25 1 -113.048 -164.314 3.42229e-07 89.3786 96.5985 92.9826 107.982
Tx-DS-Rx 
12.0458 -18.3613 5.3
-7.38436 41.503 2.02069
-2.92738 2.97377 1.6
10 25
-78.267 9.05317e-08 3.31595e-08
1 0 -76.9194 49.7926 8.55257e-08 81.7002 -67.0536 98.2998 112.946
Tx-Rx 
12.0458 -18.3613 5.3
2.15744 4.99493 1.6
2 1 -95.3565 -51.692 1.92277e-07 86.3186 -140.75 93.6814 167.675
Tx-D-Rx 
12.0458 -18.3613 5.3
-18.3115 -11.7287 3.30069
2.15744 4.99493 1.6
3 1 -96.2568 117.47 1.92277e-07 86.3186 -140.788 93.6814 167.644
Tx-D-Rx 
12.0458 -18.3613 5.3
-18.316 -11.7102 3.30015
2.15744 4.99493 1.6
4 1 -97.5487 -104.561 1.0555e-07 83.2829 -112.318 96.7171 141.631
Tx-D-Rx 
12.0458 -18.3613 5.3
-2.65311 -6.72384 3.09195
2.15744 4.99493 1.6
5 1 -99.3035 18.0007 1.05553e-07 83.2831 -112.217 96.7169 141.702
Tx-D-Rx 
12.0458 -18.3613 5.3
-2.64414 -6.76074 3.09553
2.15744 4.99493 1.6
6 1 -103.806 -147.427 1.11949e-07 83.6685 135.037 96.3315 115.987
Tx-D-Rx 
12.0458 -18.3613 5.3
-0.759151 7.90779 2.05737
2.15744 4.99493 1.6
7 1 -104.709 -95.886 8.59163e-08 81.7382 -62.3288 98.2618 106.491
Tx-D-Rx 
12.0458 -18.3613 5.3
8.98706 -8.02947 3.73542
2.15744 4.99493 1.6
8 2 -105.634 -141.67 6.94281e-07 88.9811 -159.363 91.0189 -160.945
Tx-R-R-Rx 
12.0458 -18.3613 5.3
-81.7223 -50.749 3.53565
-72.3303 -23.0574 3.0156
2.15744 4.99493 1.6
9 1 -107.17 38.7139 1.3411e-07 84.718 -152.679 95.282 140.153
Tx-D-Rx 
12.0458 -18.3613 5.3
-9.02106 -0.77998 2.76322
2.15744 4.99493 1.6
10 1 -107.932 -94.3174 9.93594e-08 82.8623 -90.783 97.1377 152.813
Tx-D-Rx 
12.0458 -18.3613 5.3
1.90938 -13.1548 3.87301
2.15744 4.99493 1.6
11 4 -108.952 -80.5631 5.03673e-07 88.5954 78.0054 91.4046 74.2399
Tx-F-X-R-R-Rx 
12.0458 -18.3613 5.3
22.1748 17.5293 4.38562
23.5712 22.4772 4.25957
33.1061 56.2628 3.39882
13.2771 57.333 2.91192
2.15744 4.99493 1.6
12 1 -109.754 22.2321 1.34119e-07 84.7184 -152.533 95.2816 140.224
Tx-D-Rx 
12.0458 -18.3613 5.3
-9.02703 -0.819203 2.7653
2.15744 4.99493 1.6
13 1 -110.153 71.7148 2.12847e-07 86.6748 39.6182 93.3252 77.4219
Tx-D-Rx 
12.0458 -18.3613 5.3
20.6779 20.3263 2.99692
2.15744 4.99493 1.6
14 1 -111.001 -60.8695 1.28679e-07 84.4944 59.6558 95.5056 101.241
Tx-D-Rx 
12.0458 -18.3613 5.3
6.07386 11.6852 2.34723
2.15744 4.99493 1.6
15 1 -112.411 -64.6577 1.75061e-07 85.956 -17.3755 94.044 39.2128
Tx-D-Rx 
12.0458 -18.3613 5.3
29.9948 -3.71572 3.66218
2.15744 4.99493 1.6
16 1 -112.461 -41.3181 9.94683e-08 82.8701 -90.2 97.1299 154.034
Tx-D-Rx 
12.0458 -18.3613 5.3
2.09283 -13.5141 3.91524
2.15744 4.99493 1.6
17 4 -112.78 154.836 3.83658e-07 88.1559 40.7266 91.8441 39.2786
Tx-D-F-X-R-Rx 
12.0458 -18.3613 5.3
30.0008 -3.6765 4.5532
38.0117 30.1107 3.43523
38.4215 31.8389 3.37805
39.7255 37.339 3.19606
2.15744 4.99493 1.6
18 1 -112.789 146.983 1.1196e-07 83.6691 133.39 96.3309 115.756
Tx-D-Rx 
12.0458 -18.3613 5.3
-0.6623 7.97774 2.0554
2.15744 4.99493 1.6
19 1 -112.804 72.2796 2.25051e-07 85.4009 -16.9501 91.2916 25.0875
Tx-DS-Rx 
12.0458 -18.3613 5.3
38.3639 -6.03998 4.64479
2.15744 4.99493 1.6
20 1 -113.645 34.6335 1.32428e-07 84.6507 -130.001 95.3493 152.17
Tx-D-Rx 
12.0458 -18.3613 5.3
-8.38933 -7.57355 3.1363
2.15744 4.99493 1.6
21 1 -113.948 -97.3619 1.78924e-07 80.013 -31.9591 83.5217 16.8761
Tx-DS-Rx 
12.0458 -18.3613 5.3
30.5814 -12.7382 7.49948
2.15744 4.99493 1.6
22 1 -114.221 -167.866 3.33653e-07 88.8215 108.529 92.7142 110.332
Tx-DS-Rx 
12.0458 -18.3613 5.3
-9.52785 39.8608 2.35648
2.15744 4.99493 1.6
23 4 -114.39 -106.033 3.43626e-07 87.941 105.518 92.059 102.086
Tx-F-X-D-R-Rx 
12.0458 -18.3613 5.3
6.24522 8.72734 4.30405
4.84339 15.2739 4.06335
0.348863 36.2634 3.29164
-7.87487 41.1272 2.94815
2.15744 4.99493 1.6
24 1 -114.479 -144.642 1.9919e-07 86.4465 -103.513 93.5535 -145.592
Tx-D-Rx 
12.0458 -18.3613 5.3
-6.50939 -31.0699 3.90337
2.15744 4.99493 1.6
25 1 -114.76 161.947 2.12851e-07 86.6748 39.3496 93.3252 77.2583
Tx-D-Rx 
12.0458 -18.3613 5.3
20.78 20.2643 2.99918
2.15744 4.99493 1.6
11 25
-77.0889 9.78691e-08 5.23712e-08
1 0 -77.373 -110.847 9.00944e-08 82.1238 -78.781 97.8762 101.219
Tx-Rx 
12.0458 -18.3613 5.3
6.84207 7.87378 1.6
2 1 -97.2625 -71.23 9.02191e-08 82.1348 -81.2729 97.8652 104.928
Tx-D-Rx 
12.0458 -18.3613 5.3
9.2726 -7.95968 3.8129
6.84207 7.87378 1.6
3 3 -97.3324 21.4021 3.18629e-07 87.7794 134.577 92.2206 120.339
Tx-F-X-R-Rx 
12.0458 -18.3613 5.3
-1.49742 4.77866 4.26034
-4.15768 9.32399 4.05613
-18.1595 33.2475 2.98127
6.84207 7.87378 1.6
4 1 -97.3711 -2.36953 1.03745e-07 83.1655 -46.5742 96.8345 73.3645
Tx-D-Rx 
12.0458 -18.3613 5.3
16.7552 -2.59958 3.32839
6.84207 7.87378 1.6
5 1 -99.5147 151.686 1.03747e-07 83.1656 -46.6861 96.8344 73.2641
Tx-D-Rx 
12.0458 -18.3613 5.3
16.7686 -2.65492 3.3343
6.84207 7.87378 1.6
6 4 -100.901 150.198 3.50936e-07 87.9839 -3.11599 92.0161 118.197
Tx-F-X-R-R-Rx 
12.0458 -18.3613 5.3
-0.372752 4.80192 4.37482
-3.47499 10.5883 4.14371
-16.3618 34.6249 3.18365
12.3637 7.5732 1.79466
6.84207 7.87378 1.6
7 2 -104.928 -113.327 7.12301e-07 89.0069 -159.083 90.9931 -160.665
Tx-R-R-Rx 
12.0458 -18.3613 5.3
-81.3404 -51.1288 3.58439
-71.2989 -21.9912 3.05014
6.84207 7.87378 1.6
8 2 -104.928 -113.327 7.12301e-07 89.0069 -159.083 90.9931 -160.665
Tx-R-R-Rx 
12.0458 -18.3613 5.3
-81.3404 -51.1288 3.58439
-71.2989 -21.9912 3.05014
6.84207 7.87378 1.6
9 1 -105.879 -88.4816 2.10453e-07 86.6369 -142.07 93.3631 167.675
Tx-D-Rx 
12.0458 -18.3613 5.3
-18.3115 -11.7287 3.47399
6.84207 7.87378 1.6
10 1 -106.956 54.7807 2.10455e-07 86.6369 -142.101 93.3631 167.644
Tx-D-Rx 
12.0458 -18.3613 5.3
-18.316 -11.7102 3.47351
6.84207 7.87378 1.6
11 1 -109.73 97.3617 9.02197e-08 82.1348 -81.2905 97.8652 104.922
Tx-D-Rx 
12.0458 -18.3613 5.3
9.25914 -7.90434 3.80505
6.84207 7.87378 1.6
12 5 -110.002 -69.9083 7.12453e-07 91.5458 -159.083 91.5458 -160.665
Tx-R-R-F-R-X-Rx 
12.0458 -18.3613 5.3
-81.3404 -51.1288 2.62921
-71.2989 -21.9912 1.79751
-30.1947 -6.28146 0.61
-28.8102 -5.75229 0.57
-27.4256 -5.22312 0.61
6.84207 7.87378 1.6
13 1 -110.468 120.645 1.2128e-07 84.1574 -122.952 95.8426 141.702
Tx-D-Rx 
12.0458 -18.3613 5.3
-2.64414 -6.76074 3.38461
6.84207 7.87378 1.6
14 4 -110.471 178.022 4.91212e-07 88.5598 79.5567 91.4402 75.7912
Tx-F-X-R-R-Rx 
12.0458 -18.3613 5.3
21.0439 17.1759 4.37835
22.6354 23.4615 4.21533
31.5069 58.4986 3.30665
16.399 59.725 2.92557
6.84207 7.87378 1.6
15 1 -111.104 54.1946 1.52353e-07 85.352 -151.386 94.648 140.153
Tx-D-Rx 
12.0458 -18.3613 5.3
-9.02106 -0.77998 3.06913
6.84207 7.87378 1.6
16 4 -111.262 165.885 3.31953e-07 87.8686 120.665 92.1314 101.254
Tx-F-X-D-R-Rx 
12.0458 -18.3613 5.3
6.64432 8.78436 4.2699
5.33023 15.3885 4.0193
3.82484 22.954 3.73221
-11.3131 38.493 2.92483
6.84207 7.87378 1.6
17 1 -112.769 -56.235 1.23243e-07 84.2508 179.206 95.7492 115.756
Tx-D-Rx 
12.0458 -18.3613 5.3
-0.6623 7.97774 2.35562
6.84207 7.87378 1.6
18 5 -113.013 -79.148 3.70347e-07 88.0896 -9.76592 91.9104 140.106
Tx-D-F-X-R-R-Rx 
12.0458 -18.3613 5.3
-9.03003 -0.743088 4.38376
-17.6936 21.2925 3.59401
-18.9117 24.3908 3.48296
-22.044 32.3577 3.19743
12.1043 6.96806 1.7781
6.84207 7.87378 1.6
19 1 -113.356 -126.093 2.02059e-07 84.0337 -27.2762 90.4771 24.267
Tx-DS-Rx 
12.0458 -18.3613 5.3
36.4157 -7.37474 5.0774
6.84207 7.87378 1.6
20 3 -113.695 -19.4445 2.66801e-07 87.3478 -92.7568 92.6522 39.1088
Tx-R-D-R-Rx 
12.0458 -18.3613 5.3
30.0084 -3.75892 4.22765
5.49494 -19.6134 2.87531
5.51947 -19.5931 2.87383
6.84207 7.87378 1.6
21 5 -113.795 95.6068 3.70347e-07 88.0896 -9.77276 91.9104 140.086
Tx-D-F-X-R-R-Rx 
12.0458 -18.3613 5.3
-9.05333 -0.71102 4.38248
-17.6994 21.2878 3.59408
-18.9185 24.3897 3.48291
-22.0487 32.3541 3.19748
12.104 6.96746 1.7781
6.84207 7.87378 1.6
22 4 -113.85 -131.366 3.37298e-07 87.9024 142.376 92.0976 139.175
Tx-D-F-X-R-Rx 
12.0458 -18.3613 5.3
-11.3315 1.83496 4.16848
-19.1579 20.7717 3.41799
-20.5414 24.1192 3.28532
-23.4894 31.252 3.00264
6.84207 7.87378 1.6
23 3 -113.851 139.665 1.74108e-07 85.9338 -8.6353 94.0662 141.702
Tx-D-R-R-Rx 
12.0458 -18.3613 5.3
-2.64414 -6.76074 3.96937
6.2039 11.6719 2.51588
12.1472 7.06812 1.98146
6.84207 7.87378 1.6
24 1 -113.871 -128.592 3.33302e-07 88.6351 116.085 92.6116 109.76
Tx-DS-Rx 
12.0458 -18.3613 5.3
-9.01154 40.2563 2.45905
6.84207 7.87378 1.6
25 1 -114.125 -11.7189 1.52365e-07 85.3523 -151.286 94.6477 140.224
Tx-D-Rx 
12.0458 -18.3613 5.3
-9.02703 -0.819203 3.07097
6.84207 7.87378 1.6
12 25
-79.3958 1.05952e-07 3.86307e-08
1 0 -78.1835 46.5163 9.8849e-08 82.8252 -88.6442 97.1748 91.3558
Tx-Rx 
12.0458 -18.3613 5.3
11.3503 11.0231 1.6
2 2 -93.9166 -141.216 1.80527e-07 86.0786 -68.6047 93.9214 140.224
Tx-D-R-Rx 
12.0458 -18.3613 5.3
-9.02703 -0.819203 3.42049
12.5404 7.98561 1.82362
11.3503 11.0231 1.6
3 2 -95.6989 19.3343 1.80528e-07 86.0786 -68.5312 93.9214 140.153
Tx-D-R-Rx 
12.0458 -18.3613 5.3
-9.02106 -0.77998 3.41909
12.5427 7.99108 1.82333
11.3503 11.0231 1.6
4 1 -98.9015 -72.3751 9.88783e-08 82.8274 -85.5081 97.1726 90.7245
Tx-D-Rx 
12.0458 -18.3613 5.3
11.7363 6.10944 2.22026
11.3503 11.0231 1.6
5 3 -99.6703 125.591 3.22208e-07 87.8041 137.798 92.1959 117.118
Tx-F-X-R-Rx 
12.0458 -18.3613 5.3
0.0917221 4.98056 4.29442
-3.01966 11.0559 4.03269
-15.4484 35.3247 2.98717
11.3503 11.0231 1.6
6 3 -108.098 -106.203 7.41099e-07 89.0455 -66.8348 90.9545 -161.144
Tx-R-R-R-Rx 
12.0458 -18.3613 5.3
-81.9948 -50.4781 3.64432
-73.0503 -23.8017 3.17554
12.5952 8.11357 1.65273
11.3503 11.0231 1.6
7 1 -108.83 -166.418 2.28752e-07 86.9062 -142.51 93.0938 167.675
Tx-D-Rx 
12.0458 -18.3613 5.3
-18.3115 -11.7287 3.62051
11.3503 11.0231 1.6
8 1 -109.347 117.445 1.61625e-07 85.6191 -179.424 94.3809 118.351
Tx-D-Rx 
12.0458 -18.3613 5.3
-3.72836 10.8715 2.75523
11.3503 11.0231 1.6
9 1 -110.023 -32.3963 2.28755e-07 86.9062 -142.537 93.0938 167.644
Tx-D-Rx 
12.0458 -18.3613 5.3
-18.316 -11.7102 3.62007
11.3503 11.0231 1.6
10 1 -110.083 -103.439 1.61626e-07 85.6192 -179.36 94.3808 118.381
Tx-D-Rx 
12.0458 -18.3613 5.3
-3.73871 10.8546 2.75603
11.3503 11.0231 1.6
11 1 -110.83 -58.2575 1.84783e-07 86.1691 -157.564 93.8309 139.354
Tx-D-Rx 
12.0458 -18.3613 5.3
-11.2922 1.67405 3.24035
11.3503 11.0231 1.6
12 4 -110.872 106.025 7.42126e-07 89.0468 -66.545 90.9532 -130.499
Tx-R-R-R-R-Rx 
12.0458 -18.3613 5.3
10.627 -20.0226 5.26365
-81.5028 -50.9674 3.64663
-72.2864 -23.012 3.15688
12.6039 8.1338 1.6524
11.3503 11.0231 1.6
13 1 -111.373 14.9032 1.004e-07 82.9366 -96.2463 97.0634 104.928
Tx-D-Rx 
12.0458 -18.3613 5.3
9.2726 -7.95968 3.96615
11.3503 11.0231 1.6
14 1 -113.197 -166.066 3.25666e-07 87.8274 22.8467 92.1726 51.1924
Tx-D-Rx 
12.0458 -18.3613 5.3
48.1457 26.5258 3.11474
11.3503 11.0231 1.6
15 1 -113.219 66.7314 1.84786e-07 86.1691 -157.679 93.8309 139.264
Tx-D-Rx 
12.0458 -18.3613 5.3
-11.2835 1.73066 3.23835
11.3503 11.0231 1.6
16 3 -113.716 143.185 3.4625e-07 88.6316 115.537 92.5201 104.749
Tx-F-X-DS-Rx 
12.0458 -18.3613 5.3
4.89659 8.79538 4.06402
4.52628 10.202 4
-4.32998 43.8432 2.46889
11.3503 11.0231 1.6
17 1 -114.313 43.5187 1.70563e-07 85.8491 -149.912 94.1509 140.153
Tx-D-Rx 
12.0458 -18.3613 5.3
-9.02106 -0.77998 3.30864
11.3503 11.0231 1.6
18 1 -114.468 -83.883 3.25671e-07 87.8275 22.9021 92.1725 51.2304
Tx-D-Rx 
12.0458 -18.3613 5.3
48.1224 26.5578 3.11438
11.3503 11.0231 1.6
19 4 -114.708 -68.5237 3.31466e-07 87.8655 126.169 92.1345 101.259
Tx-F-X-D-R-Rx 
12.0458 -18.3613 5.3
6.64159 8.78397 4.26838
5.3269 15.3877 4.01742
3.81778 22.968 3.72934
-9.65843 39.7607 2.92681
11.3503 11.0231 1.6
20 1 -114.917 7.25131 1.38518e-07 84.8865 -128.2 95.1135 141.702
Tx-D-Rx 
12.0458 -18.3613 5.3
-2.64414 -6.76074 3.62502
11.3503 11.0231 1.6
21 4 -115.397 110.394 3.43553e-07 107.847 -50.0893 92.7011 117.363
Tx-F-X-R-DS-Rx 
12.0458 -18.3613 5.3
-0.0133947 4.94013 4.06218
-0.619151 6.11061 4
-15.656 35.1656 2.45654
13.3373 8.64753 0.602823
11.3503 11.0231 1.6
22 1 -115.686 66.038 3.85786e-07 86.1874 47.3829 90.5824 64.5359
Tx-DS-Rx 
12.0458 -18.3613 5.3
41.7965 44.1131 4.59657
11.3503 11.0231 1.6
23 6 -116.663 -44.3279 6.36576e-07 88.8887 94.1302 91.1113 93.6077
Tx-F-X-R-R-R-R-Rx 
12.0458 -18.3613 5.3
8.51342 37.6644 4.21106
7.95673 46.4939 4.03945
7.54998 52.9452 3.91406
43.9782 40.6208 3.16809
43.9753 41.067 3.15944
8.28256 53.5064 2.42623
11.3503 11.0231 1.6
24 1 -117.94 -78.2742 1.70578e-07 85.8495 -149.837 94.1505 140.224
Tx-D-Rx 
12.0458 -18.3613 5.3
-9.02703 -0.819203 3.3103
11.3503 11.0231 1.6
25 3 -118.381 174.133 3.96929e-07 88.2176 77.3232 91.7824 82.8589
Tx-F-X-D-Rx 
12.0458 -18.3613 5.3
16.0654 13.7227 4.29379
16.5368 17.4852 4.17579
21.23 54.9458 3.00096
11.3503 11.0231 1.6
13 25
-110.289 2.56726e-07 1.03578e-07
1 1 -98.208 115.215 3.08044e-07 87.7031 20.5691 92.2969 51.2304
Tx-D-Rx 
12.0458 -18.3613 5.3
48.1224 26.5578 2.98912
15.698 14.3903 1.6
2 1 -99.7822 -81.873 3.08045e-07 87.7031 20.5059 92.2969 51.1924
Tx-D-Rx 
12.0458 -18.3613 5.3
48.1457 26.5258 2.98954
15.698 14.3903 1.6
3 1 -100.599 -75.1655 1.10701e-07 79.5224 -95.7624 95.6928 83.5331
Tx-D-Rx 
12.0458 -18.3613 5.3
15.2093 9.54825 2.5
15.698 14.3903 1.6
4 1 -106.854 -96.1142 1.35094e-07 84.7566 -164.236 95.2434 100.624
Tx-D-Rx 
12.0458 -18.3613 5.3
6.3948 11.764 2.48713
15.698 14.3903 1.6
5 1 -109.694 -42.4233 2.47076e-07 87.1359 -142.476 92.8641 167.675
Tx-D-Rx 
12.0458 -18.3613 5.3
-18.3115 -11.7287 3.74539
15.698 14.3903 1.6
6 3 -109.715 137.661 4.82383e-07 88.5334 99.5128 91.4666 64.8935
Tx-R-D-R-Rx 
12.0458 -18.3613 5.3
41.5084 44.5159 3.52227
32.1928 43.4946 3.28234
9.04526 54.0908 2.63058
15.698 14.3903 1.6
7 1 -109.741 73.7627 1.5477e-07 85.4247 -51.7047 94.5753 39.2128
Tx-D-Rx 
12.0458 -18.3613 5.3
29.9948 -3.71572 3.44616
15.698 14.3903 1.6
8 1 -110.052 0.88533 2.03552e-07 84.5392 -41.104 91.494 25.2476
Tx-DS-Rx 
12.0458 -18.3613 5.3
38.7842 -5.75197 4.52896
15.698 14.3903 1.6
9 1 -110.861 92.3506 2.47079e-07 87.1359 -142.499 92.8641 167.644
Tx-D-Rx 
12.0458 -18.3613 5.3
-18.316 -11.7102 3.74498
15.698 14.3903 1.6
10 3 -110.953 -80.6807 3.44274e-07 88.0223 121.709 92.1744 103.474
Tx-F-X-DS-Rx 
12.0458 -18.3613 5.3
5.5712 8.66046 4.24497
4.08642 14.8572 4.00303
-3.08698 44.7955 2.83413
15.698 14.3903 1.6
11 1 -111.138 -77.7668 1.35101e-07 84.7569 -164.725 95.2431 100.476
Tx-D-Rx 
12.0458 -18.3613 5.3
6.4567 11.8664 2.4791
15.698 14.3903 1.6
12 5 -111.697 -120.594 3.53597e-07 87.9991 -102.296 92.0009 118.66
Tx-F-X-R-D-R-Rx 
12.0458 -18.3613 5.3
-0.57273 4.72501 4.38083
-3.64768 10.3508 4.15685
-16.752 34.3259 3.20229
6.37809 12.1882 2.08374
14.6013 9.35849 1.77992
15.698 14.3903 1.6
13 1 -112.313 88.3046 1.54778e-07 85.4249 -51.6326 94.5751 39.2786
Tx-D-Rx 
12.0458 -18.3613 5.3
30.0008 -3.6765 3.4439
15.698 14.3903 1.6
14 5 -113.333 49.2339 3.53598e-07 87.9991 -102.191 92.0009 118.676
Tx-F-X-R-D-R-Rx 
12.0458 -18.3613 5.3
-0.579663 4.72234 4.3808
-3.65364 10.3426 4.157
-16.7655 34.3156 3.20238
6.27603 12.2503 2.08782
14.6122 9.36465 1.77963
15.698 14.3903 1.6
15 1 -113.342 171.8 3.67956e-07 84.7605 47.1626 90.0786 63.7375
Tx-DS-Rx 
12.0458 -18.3613 5.3
42.4328 43.2235 5.20577
15.698 14.3903 1.6
16 1 -113.89 61.8385 1.6899e-07 81.9267 -58.6066 88.5649 21.1352
Tx-DS-Rx 
12.0458 -18.3613 5.3
31.1724 -10.9674 5.81372
15.698 14.3903 1.6
17 1 -114.7 157.043 1.11119e-07 83.621 -85.2591 96.379 81.1208
Tx-D-Rx 
12.0458 -18.3613 5.3
16.2058 8.26711 2.2869
15.698 14.3903 1.6
18 2 -115.07 3.79963 4.55407e-07 88.4465 111.621 91.5535 65.8975
Tx-R-D-Rx 
12.0458 -18.3613 5.3
40.6883 45.6624 3.39788
4.61751 42.3461 2.41553
15.698 14.3903 1.6
19 1 -116.473 -146.665 1.76218e-07 78.1413 -55.1666 83.5133 22.1903
Tx-DS-Rx 
12.0458 -18.3613 5.3
32.6428 -9.95986 7.82922
15.698 14.3903 1.6
20 1 -116.864 105.963 1.88736e-07 86.2494 -148.462 93.7506 140.153
Tx-D-Rx 
12.0458 -18.3613 5.3
-9.02106 -0.77998 3.50125
15.698 14.3903 1.6
21 1 -116.92 85.5709 2.45611e-07 78.5664 -26.9083 85.284 27.3035
Tx-DS-Rx 
12.0458 -18.3613 5.3
45.8489 -0.911635 8.43827
15.698 14.3903 1.6
22 1 -117.162 137.419 1.56361e-07 85.4714 -130.932 94.5286 141.702
Tx-D-Rx 
12.0458 -18.3613 5.3
-2.64414 -6.76074 3.81744
15.698 14.3903 1.6
23 1 -118.216 99.6494 2.02557e-07 86.5056 -154.864 93.4944 139.264
Tx-D-Rx 
12.0458 -18.3613 5.3
-11.2835 1.73066 3.41993
15.698 14.3903 1.6
24 1 -119.622 55.4624 1.2202e-07 84.1929 149.23 95.8071 87.2851
Tx-D-Rx 
12.0458 -18.3613 5.3
13.6565 15.6058 1.84164
15.698 14.3903 1.6
25 3 -120.05 69.3338 5.99112e-07 88.8192 -62.8468 91.1808 33.0108
Tx-R-R-D-Rx 
12.0458 -18.3613 5.3
68.6449 18.4097 3.90884
15.7169 -21.1094 2.54738
29.2362 -12.0053 2.21143
15.698 14.3903 1.6
14 25
-78.4356 1.34854e-07 4.13657e-08
1 0 -80.312 172.432 1.25592e-07 84.3586 -101.415 95.6414 78.5853
Tx-Rx 
12.0458 -18.3613 5.3
19.4589 18.3548 1.6
2 3 -96.5843 176.563 3.27829e-07 87.8418 144.159 92.1582 110.757
Tx-F-X-R-Rx 
12.0458 -18.3613 5.3
2.33449 7.26181 4.26734
0.723864 11.5114 4.09607
-9.90978 39.5681 2.96532
19.4589 18.3548 1.6
3 2 -98.0163 -105.45 1.83047e-07 86.1327 -123.205 93.8673 115.744
Tx-R-R-Rx 
12.0458 -18.3613 5.3
-0.658457 7.98409 3.32278
12.9703 8.44105 2.40096
19.4589 18.3548 1.6
4 2 -104.438 73.2423 1.83047e-07 86.1327 -123.219 93.8673 115.756
Tx-D-R-Rx 
12.0458 -18.3613 5.3
-0.6623 7.97774 3.32306
12.9648 8.43797 2.40134
19.4589 18.3548 1.6
5 1 -105.398 106.954 2.65091e-07 87.3306 -141.463 92.6694 167.675
Tx-D-Rx 
12.0458 -18.3613 5.3
-18.3115 -11.7287 3.85127
19.4589 18.3548 1.6
6 1 -106.276 -97.0457 2.65092e-07 87.3307 -141.484 92.6693 167.644
Tx-D-Rx 
12.0458 -18.3613 5.3
-18.316 -11.7102 3.85089
19.4589 18.3548 1.6
7 1 -106.995 170.769 1.25993e-07 84.3766 -97.3499 95.6234 73.3937
Tx-D-Rx 
12.0458 -18.3613 5.3
16.7633 -2.5432 3.67472
19.4589 18.3548 1.6
8 2 -107.42 -117.993 3.34882e-07 87.8872 60.9435 92.1128 109.382
Tx-R-D-Rx 
12.0458 -18.3613 5.3
-8.66849 40.5192 2.99732
20.6082 20.4234 1.6873
19.4589 18.3548 1.6
9 2 -108.052 107.369 3.89362e-07 88.183 130.561 91.817 39.2128
Tx-D-R-Rx 
12.0458 -18.3613 5.3
29.9948 -3.71572 4.56509
-3.13854 44.756 2.70245
19.4589 18.3548 1.6
10 2 -108.584 30.6803 1.83048e-07 86.1327 -122.993 93.8673 115.561
Tx-D-R-Rx 
12.0458 -18.3613 5.3
-0.600404 8.08007 3.31865
13.0525 8.48732 2.3953
19.4589 18.3548 1.6
11 2 -109.201 -103.226 3.89364e-07 88.183 130.544 91.817 39.2786
Tx-D-R-Rx 
12.0458 -18.3613 5.3
30.0008 -3.6765 4.56416
-3.13054 44.7621 2.70243
19.4589 18.3548 1.6
12 1 -110.069 -87.3299 2.04796e-07 84.6044 -51.0569 91.507 25.2852
Tx-DS-Rx 
12.0458 -18.3613 5.3
38.8849 -5.68303 4.51909
19.4589 18.3548 1.6
13 3 -110.725 -72.7457 3.43119e-07 87.8003 128.497 92.0716 102.525
Tx-F-X-DS-Rx 
12.0458 -18.3613 5.3
6.03463 8.69726 4.29739
4.59645 15.1711 4.05751
-2.14504 45.5172 2.93308
19.4589 18.3548 1.6
14 3 -112.957 130.547 3.47148e-07 82.775 42.8526 89.5439 61.77
Tx-F-X-DS-Rx 
12.0458 -18.3613 5.3
38.0393 30.0554 5.73745
39.675 33.1021 5.76498
43.9615 41.0863 5.83712
19.4589 18.3548 1.6
15 1 -113.454 3.6998 1.35311e-07 84.765 -154.847 95.235 87.128
Tx-D-Rx 
12.0458 -18.3613 5.3
13.7533 15.6757 2.17752
19.4589 18.3548 1.6
16 1 -113.555 -32.9898 1.5937e-07 85.557 -64.4291 94.443 39.2786
Tx-D-Rx 
12.0458 -18.3613 5.3
30.0008 -3.6765 3.49772
19.4589 18.3548 1.6
17 1 -113.778 78.8165 1.38514e-07 84.8864 -70.3135 95.1136 58.4681
Tx-D-Rx 
12.0458 -18.3613 5.3
25.0262 2.79436 3.0789
19.4589 18.3548 1.6
18 4 -114.722 125.069 3.27941e-07 87.8425 143.634 92.1575 106.491
Tx-D-F-X-R-Rx 
12.0458 -18.3613 5.3
8.98706 -8.02947 4.89407
2.43075 8.80206 4.21356
2.28989 9.16368 4.19894
-9.63532 39.7784 2.96117
19.4589 18.3548 1.6
19 1 -115.054 155.809 1.30657e-07 84.578 -111.161 95.422 104.928
Tx-D-Rx 
12.0458 -18.3613 5.3
9.2726 -7.95968 4.27824
19.4589 18.3548 1.6
20 6 -115.377 3.97379 3.61281e-07 88.0417 125.642 91.9583 77.5507
Tx-F-X-D-F-X-R-Rx 
12.0458 -18.3613 5.3
19.9581 17.4787 4.04503
20.242 18.7648 4
20.6082 20.4234 3.94192
5.73162 38.616 3.13838
4.01405 40.7164 3.04561
-0.77198 46.5692 2.78709
19.4589 18.3548 1.6
21 2 -115.934 -57.0712 3.34886e-07 87.8873 62.7441 92.1127 109.337
Tx-R-D-Rx 
12.0458 -18.3613 5.3
-8.62742 40.5506 2.99675
20.582 20.5349 1.69047
19.4589 18.3548 1.6
22 1 -116.059 -50.1219 2.44325e-07 78.2626 -35.4013 85.3646 27.3853
Tx-DS-Rx 
12.0458 -18.3613 5.3
46.2151 -0.660739 8.42011
19.4589 18.3548 1.6
23 4 -116.083 -174.958 3.25127e-07 87.8238 22.7246 92.1762 57.8441
Tx-D-R-F-X-Rx 
12.0458 -18.3613 5.3
25.2869 2.70119 4.35461
50.8246 31.4912 2.89221
48.1711 30.3799 2.78289
46.722 29.773 2.72319
19.4589 18.3548 1.6
24 1 -116.154 149.069 1.49262e-07 85.2555 -1.99308 94.7445 70.166
Tx-D-Rx 
12.0458 -18.3613 5.3
25.2167 18.1545 2.07818
19.4589 18.3548 1.6
25 4 -116.436 -167.759 4.57586e-07 88.4539 -30.9751 91.5461 62.4431
Tx-D-F-X-R-Rx 
12.0458 -18.3613 5.3
41.9413 38.9284 3.55587
43.0072 32.763 3.38699
43.5987 29.3421 3.29329
48.5137 0.914158 2.51463
19.4589 18.3548 1.6
15 25
-81.2995 1.57536e-07 7.21444e-08
1 0 -81.5354 -134.859 1.43748e-07 85.073 -101.713 94.927 78.2872
Tx-Rx 
12.0458 -18.3613 5.3
20.7591 23.6664 1.6
2 1 -95.4974 -49.6368 1.43871e-07 85.0773 -93.2366 94.9227 77.6221
Tx-D-Rx 
12.0458 -18.3613 5.3
20.582 20.5349 1.87014
20.7591 23.6664 1.6
3 1 -100.393 113.22 1.43872e-07 85.0773 -93.0294 94.9227 77.6326
Tx-D-Rx 
12.0458 -18.3613 5.3
20.5993 20.6481 1.86032
20.7591 23.6664 1.6
4 2 -100.974 11.219 3.14814e-07 93.5853 17.565 93.5853 53.5855
Tx-R-R-Rx 
12.0458 -18.3613 5.3
49.8376 32.8711 1.31108
37.4965 28.9645 0.5
20.7591 23.6664 1.6
5 4 -103.262 -38.6336 3.99452e-07 88.2289 -30.1781 91.7711 107.453
Tx-F-X-R-D-Rx 
12.0458 -18.3613 5.3
2.9487 10.5742 4.36209
2.49773 12.0086 4.31559
-6.89333 41.8792 3.34737
30.8782 17.782 1.96196
20.7591 23.6664 1.6
6 3 -104.813 -132.449 7.76008e-07 89.0884 -156.951 90.9116 -133.401
Tx-R-R-R-Rx 
12.0458 -18.3613 5.3
10.2057 -20.3071 5.25739
-77.6072 -54.8413 3.75599
-60.6343 -10.9655 3.00745
20.7591 23.6664 1.6
7 3 -104.813 -132.449 7.76008e-07 89.0884 -156.951 90.9116 -133.401
Tx-R-R-R-Rx 
12.0458 -18.3613 5.3
10.2057 -20.3071 5.25739
-77.6072 -54.8413 3.75599
-60.6343 -10.9655 3.00745
20.7591 23.6664 1.6
8 5 -105.308 116.464 3.14441e-07 87.7498 17.565 92.2502 53.5855
Tx-F-X-R-F-X-Rx 
12.0458 -18.3613 5.3
47.6741 29.9381 2.94168
48.8505 31.5329 2.86381
49.8376 32.8711 2.79847
48.758 32.5293 2.75397
45.3571 31.4528 2.61381
20.7591 23.6664 1.6
9 4 -108.038 70.0923 3.21428e-07 87.7988 147.019 92.2012 106.491
Tx-D-F-X-R-Rx 
12.0458 -18.3613 5.3
8.98706 -8.02947 4.88583
3.04834 10.3607 4.14301
2.43563 12.2581 4.06637
-7.08298 41.7339 2.87577
20.7591 23.6664 1.6
10 1 -108.425 28.4891 1.44072e-07 85.0842 -98.6683 94.9158 73.3937
Tx-D-Rx 
12.0458 -18.3613 5.3
16.7633 -2.5432 3.88029
20.7591 23.6664 1.6
11 1 -110.493 -121.267 3.37581e-07 79.6985 41.9929 88.6606 63.7117
Tx-DS-Rx 
12.0458 -18.3613 5.3
42.4532 43.195 6.90533
20.7591 23.6664 1.6
12 3 -110.689 147.914 3.14815e-07 93.5853 17.8311 93.5853 53.6636
Tx-R-D-R-Rx 
12.0458 -18.3613 5.3
49.7845 32.9454 1.30932
41.1023 30.21 0.738956
37.4717 29.0422 0.5
20.7591 23.6664 1.6
13 1 -110.924 -9.02173 2.19417e-07 85.3292 -57.0474 91.6639 25.5108
Tx-DS-Rx 
12.0458 -18.3613 5.3
39.5077 -5.25631 4.41609
20.7591 23.6664 1.6
14 2 -110.926 162.649 3.14815e-07 93.8271 17.6249 93.5341 53.5981
Tx-R-D-Rx 
12.0458 -18.3613 5.3
49.829 32.8831 1.36787
36.4311 28.6453 0.5
20.7591 23.6664 1.6
15 3 -111.556 61.0228 2.55526e-07 87.2307 -154.682 92.7693 137.152
Tx-D-F-X-Rx 
12.0458 -18.3613 5.3
-15.0173 6.74146 3.51445
-9.61935 9.2951 3.2256
-7.13183 10.4719 3.09249
20.7591 23.6664 1.6
16 1 -112.311 53.5462 1.54393e-07 85.4135 -78.3937 94.5865 58.5202
Tx-D-Rx 
12.0458 -18.3613 5.3
25.0343 2.85074 3.3047
20.7591 23.6664 1.6
17 1 -112.452 -78.6398 2.79863e-07 87.4716 -137.844 92.5284 167.644
Tx-D-Rx 
12.0458 -18.3613 5.3
-18.316 -11.7102 3.92752
20.7591 23.6664 1.6
18 7 -112.929 160.851 3.41185e-07 84.8704 137.722 90.7451 103.141
Tx-F-X-F-X-F-X-DS-Rx 
12.0458 -18.3613 5.3
5.73871 8.65498 4.93921
4.2651 14.9672 4.85491
3.33236 18.9626 4.80155
1.56172 26.5471 4.70026
0.246592 32.1804 4.62503
-1.6153 40.1558 4.51852
-2.7574 45.048 4.45319
20.7591 23.6664 1.6
19 4 -113.477 80.896 4.371e-07 88.3815 108.139 91.6185 61.1368
Tx-F-X-D-R-Rx 
12.0458 -18.3613 5.3
38.3691 29.3959 3.75915
40.5981 33.4398 3.62868
41.3956 34.8868 3.58199
10.4414 55.1605 2.53644
20.7591 23.6664 1.6
20 2 -113.623 -139.185 3.79086e-07 88.1337 133.362 91.8663 39.2786
Tx-D-R-Rx 
12.0458 -18.3613 5.3
30.0008 -3.6765 4.54418
-0.828815 46.5256 2.62452
20.7591 23.6664 1.6
21 3 -113.696 -137.328 2.55527e-07 87.2307 -154.751 92.7693 137.079
Tx-D-F-X-Rx 
12.0458 -18.3613 5.3
-15.0086 6.79807 3.5129
-9.64966 9.3254 3.2263
-7.13183 10.5128 3.09164
20.7591 23.6664 1.6
22 1 -113.728 50.0141 2.79865e-07 87.4717 -137.826 92.5283 167.675
Tx-D-Rx 
12.0458 -18.3613 5.3
-18.3115 -11.7287 3.9279
20.7591 23.6664 1.6
23 4 -113.978 -4.12539 3.32766e-07 87.8738 153.243 92.1262 144.038
Tx-D-F-X-R-Rx 
12.0458 -18.3613 5.3
-0.173668 -9.49564 4.73951
-2.83077 3.36584 4.25193
-4.1167 9.5903 4.01596
-10.2553 39.3035 2.88952
20.7591 23.6664 1.6
24 4 -114.283 -116.331 4.37101e-07 88.3815 108.117 91.6185 61.1623
Tx-F-X-D-R-Rx 
12.0458 -18.3613 5.3
38.3559 29.4222 3.75868
40.5681 33.4398 3.62909
41.3862 34.9255 3.58117
10.4522 55.1688 2.53657
20.7591 23.6664 1.6
25 3 -114.342 170.443 5.97376e-07 88.8158 117.384 91.1842 51.1534
Tx-D-R-R-Rx 
12.0458 -18.3613 5.3
48.1796 26.5053 4.10917
56.1248 6.12892 3.65708
6.14892 51.8717 2.25662
20.7591 23.6664 1.6
16 25
-81.8372 1.81501e-07 7.32211e-08
1 0 -82.5295 -135.962 1.60295e-07 85.5827 -104.596 94.4173 75.4045
Tx-Rx 
12.0458 -18.3613 5.3
24.1155 27.9899 1.6
2 3 -98.3676 -91.4269 3.23521e-07 87.813 150.403 92.187 104.513
Tx-F-X-R-Rx 
12.0458 -18.3613 5.3
5.02238 8.77023 4.22973
3.54708 14.4693 4.00491
-4.10199 44.0179 2.8393
24.1155 27.9899 1.6
3 2 -99.7317 112.248 4.22577e-07 88.3258 111.132 91.6742 63.649
Tx-D-R-Rx 
12.0458 -18.3613 5.3
39.676 37.4192 3.48059
12.889 57.0357 2.51016
24.1155 27.9899 1.6
4 2 -100.606 -73.2891 4.22577e-07 88.3258 111.155 91.6742 63.6254
Tx-D-R-Rx 
12.0458 -18.3613 5.3
39.6855 37.3804 3.48148
12.8788 57.0279 2.51006
24.1155 27.9899 1.6
5 3 -102.261 -91.4729 2.99601e-07 87.6383 15.5791 92.3617 55.5714
Tx-F-X-R-Rx 
12.0458 -18.3613 5.3
45.5201 30.4745 2.85814
47.6738 33.6165 2.70104
48.4718 34.7807 2.64283
24.1155 27.9899 1.6
6 1 -104.544 -2.94214 1.60346e-07 85.5841 -103.539 94.4159 73.3937
Tx-D-Rx 
12.0458 -18.3613 5.3
16.7633 -2.5432 4.02529
24.1155 27.9899 1.6
7 2 -105.824 68.2245 7.91215e-07 89.1059 -156.032 90.8941 -157.613
Tx-R-R-Rx 
12.0458 -18.3613 5.3
-77.2883 -55.1584 3.79226
-58.4631 -8.72107 3.01029
24.1155 27.9899 1.6
8 4 -106.254 40.6832 3.23522e-07 87.813 150.454 92.187 104.922
Tx-D-F-X-R-Rx 
12.0458 -18.3613 5.3
9.25914 -7.90434 4.88673
4.95516 8.78367 4.22858
3.50074 14.423 4.00618
-4.12707 43.9986 2.83976
24.1155 27.9899 1.6
9 1 -108.785 83.8237 3.18313e-07 80.8223 39.7891 89.8754 63.7498
Tx-DS-Rx 
12.0458 -18.3613 5.3
42.423 43.2372 5.44933
24.1155 27.9899 1.6
10 4 -109.442 109.317 3.24239e-07 87.8179 143.786 92.1821 102.313
Tx-F-X-R-D-Rx 
12.0458 -18.3613 5.3
6.13633 8.71179 4.24412
4.77009 14.971 4
-1.93294 45.6797 2.80232
4.53697 42.3264 2.52465
24.1155 27.9899 1.6
11 1 -109.524 125.144 1.62998e-07 85.6561 -83.6393 94.3439 70.1969
Tx-D-Rx 
12.0458 -18.3613 5.3
25.2078 18.1914 2.34891
24.1155 27.9899 1.6
12 3 -109.703 -89.9965 3.00544e-07 93.7558 9.67257 93.7558 53.528
Tx-R-D-R-Rx 
12.0458 -18.3613 5.3
49.8767 32.8165 1.12223
46.9153 31.8759 0.918263
40.6342 30.8053 0.5
24.1155 27.9899 1.6
13 1 -109.781 -77.7096 1.60521e-07 85.589 -111.374 94.411 76.779
Tx-D-Rx 
12.0458 -18.3613 5.3
21.1628 20.4454 2.22496
24.1155 27.9899 1.6
14 5 -110.069 53.2345 3.35113e-07 87.1091 141.608 91.8436 100.456
Tx-F-X-F-X-DS-Rx 
12.0458 -18.3613 5.3
7.02171 8.86274 4.4089
5.79714 15.4983 4.19171
5.19243 18.7751 4.08445
4.71628 21.3552 4
-0.0402993 47.1298 3.15635
24.1155 27.9899 1.6
15 1 -111.805 115.486 3.15536e-07 87.7576 85.1 92.2424 78.584
Tx-D-Rx 
12.0458 -18.3613 5.3
26.1151 51.3145 2.51666
24.1155 27.9899 1.6
16 1 -111.93 109.358 2.28889e-07 86.4265 -63.8643 92.6017 25.7478
Tx-DS-Rx 
12.0458 -18.3613 5.3
40.1967 -4.78421 3.87985
24.1155 27.9899 1.6
17 1 -112.948 -115.394 3.15538e-07 87.7577 85.1483 92.2423 78.5999
Tx-D-Rx 
12.0458 -18.3613 5.3
26.0956 51.3177 2.51672
24.1155 27.9899 1.6
18 2 -113.046 -31.123 4.3359e-07 88.3684 108.88 91.6316 62.5086
Tx-D-R-Rx 
12.0458 -18.3613 5.3
41.8847 38.9799 3.45871
13.9138 57.8209 2.49806
24.1155 27.9899 1.6
19 1 -113.078 -97.7222 1.63e-07 85.6562 -83.5794 94.3438 70.2082
Tx-D-Rx 
12.0458 -18.3613 5.3
25.2137 18.2306 2.34599
24.1155 27.9899 1.6
20 1 -113.305 -3.808 1.85346e-07 86.1807 -66.0704 93.8193 51.8528
Tx-D-Rx 
12.0458 -18.3613 5.3
32.9012 8.1915 3.04599
24.1155 27.9899 1.6
21 1 -113.522 81.1172 2.22139e-07 86.814 -142.441 93.186 126.103
Tx-D-Rx 
12.0458 -18.3613 5.3
-5.27518 5.38917 3.66375
24.1155 27.9899 1.6
22 1 -113.683 -147.437 1.60413e-07 85.586 -102.996 94.414 72.3546
Tx-D-Rx 
12.0458 -18.3613 5.3
17.0461 -2.6415 4.02665
24.1155 27.9899 1.6
23 5 -113.798 95.3705 4.46145e-07 88.4143 105.409 91.5857 60.0438
Tx-F-X-D-R-R-Rx 
12.0458 -18.3613 5.3
39.1573 28.6803 3.79696
41.9004 33.4398 3.64488
43.7656 36.6762 3.54148
42.4099 43.2555 3.35552
15.5486 59.0734 2.49257
24.1155 27.9899 1.6
24 2 -113.826 -19.718 3.95386e-07 88.2107 168.916 91.7893 167.62
Tx-D-R-Rx 
12.0458 -18.3613 5.3
-18.3277 -11.6942 4.32854
-15.0164 35.6557 2.84572
24.1155 27.9899 1.6
25 2 -113.94 112.665 4.33592e-07 88.3684 108.856 91.6316 62.5319
Tx-D-R-Rx 
12.0458 -18.3613 5.3
41.8753 39.0186 3.45786
13.9246 57.8292 2.49818
24.1155 27.9899 1.6
17 25
-84.7488 1.85578e-07 4.16058e-08
1 0 -83.382 -62.3556 1.75775e-07 85.9724 -107.934 94.0276 72.0658
Tx-Rx 
12.0458 -18.3613 5.3
28.2268 31.6341 1.6
2 1 -93.2451 73.9207 1.75776e-07 85.9724 -108.066 94.0276 72.3546
Tx-D-Rx 
12.0458 -18.3613 5.3
17.0461 -2.6415 4.13852
28.2268 31.6341 1.6
3 3 -99.7532 -9.88228 3.29896e-07 87.8553 153.419 92.1447 101.497
Tx-F-X-R-Rx 
12.0458 -18.3613 5.3
6.52796 8.76773 4.26322
5.18816 15.355 4.01148
-1.10815 46.3116 2.82843
28.2268 31.6341 1.6
4 1 -100.929 60.8912 1.76445e-07 97.0679 -107.869 96.2715 72.0526
Tx-D-Rx 
12.0458 -18.3613 5.3
25.5045 23.1903 0.5
28.2268 31.6341 1.6
5 1 -104.768 165.238 1.75796e-07 85.9729 -108.542 94.0271 73.3937
Tx-D-Rx 
12.0458 -18.3613 5.3
16.7633 -2.5432 4.1379
28.2268 31.6341 1.6
6 2 -105.361 47.9713 2.90257e-07 87.5622 20.2067 92.4378 63.4973
Tx-D-R-Rx 
12.0458 -18.3613 5.3
39.8167 37.3319 2.65056
45.7612 38.0879 2.39545
28.2268 31.6341 1.6
7 2 -106.402 -154.253 2.90258e-07 87.5622 20.251 92.4378 63.4802
Tx-D-R-Rx 
12.0458 -18.3613 5.3
39.849 37.3552 2.64907
45.7578 38.102 2.39551
28.2268 31.6341 1.6
8 1 -106.793 -159.946 3.00302e-07 79.1992 41.0103 90.1609 64.1618
Tx-DS-Rx 
12.0458 -18.3613 5.3
42.0958 43.6947 5.10633
28.2268 31.6341 1.6
9 1 -108.81 147.13 2.48439e-07 87.1516 13.7252 92.8484 61.1042
Tx-D-Rx 
12.0458 -18.3613 5.3
41.4181 34.856 2.27563
28.2268 31.6341 1.6
10 2 -109.122 -157.426 3.91519e-07 88.193 -42.4467 91.807 51.1534
Tx-D-R-Rx 
12.0458 -18.3613 5.3
48.1796 26.5053 3.48253
56.118 6.12425 2.79248
28.2268 31.6341 1.6
11 4 -109.221 122.978 3.29897e-07 87.8553 153.588 92.1447 101.626
Tx-F-X-D-R-Rx 
12.0458 -18.3613 5.3
6.46604 8.75889 4.26309
5.1126 15.3372 4.01157
0.767404 36.457 3.20408
-1.19361 46.2462 2.83019
28.2268 31.6341 1.6
12 3 -109.482 -48.4309 2.908e-07 87.5668 155.639 92.4332 96.9877
Tx-F-X-D-Rx 
12.0458 -18.3613 5.3
8.60561 9.7065 4.09839
8.32394 12.0046 4
4.60716 42.3292 2.70177
28.2268 31.6341 1.6
13 3 -110.152 122.582 2.908e-07 87.5668 155.675 92.4332 97.0032
Tx-F-X-D-Rx 
12.0458 -18.3613 5.3
8.59885 9.6987 4.09868
8.31571 12.0037 4
4.59186 42.318 2.70217
28.2268 31.6341 1.6
14 2 -110.256 10.369 3.91519e-07 88.193 -42.4152 91.807 51.1208
Tx-D-R-Rx 
12.0458 -18.3613 5.3
48.2171 26.4996 3.48193
56.1356 6.13632 2.79263
28.2268 31.6341 1.6
15 1 -110.527 -141.352 2.48444e-07 87.1516 13.8741 92.8484 61.1368
Tx-D-Rx 
12.0458 -18.3613 5.3
41.3956 34.8868 2.27489
28.2268 31.6341 1.6
16 2 -111.128 27.8831 4.06855e-07 88.2611 171.665 91.7389 167.644
Tx-D-R-Rx 
12.0458 -18.3613 5.3
-18.316 -11.7102 4.3564
-12.4809 37.5982 2.84902
28.2268 31.6341 1.6
17 1 -111.349 -6.09157 1.76036e-07 85.9784 -102.669 94.0216 70.2082
Tx-D-Rx 
12.0458 -18.3613 5.3
25.2137 18.2306 2.56587
28.2268 31.6341 1.6
18 7 -111.696 178.16 3.40799e-07 85.7467 139.649 91.1939 95.5963
Tx-F-X-F-X-F-X-DS-Rx 
12.0458 -18.3613 5.3
9.22152 10.462 4.69641
8.87349 14.0139 4.62203
8.16071 21.2882 4.4697
7.72639 25.7207 4.37688
6.50051 38.2315 4.11489
5.76139 45.7747 3.95693
5.23275 51.1698 3.84395
28.2268 31.6341 1.6
19 2 -111.914 -170.568 4.06856e-07 88.2611 171.673 91.7389 167.62
Tx-D-R-Rx 
12.0458 -18.3613 5.3
-18.3277 -11.6942 4.35595
-12.4877 37.5931 2.8492
28.2268 31.6341 1.6
20 1 -112.58 144.858 2.36378e-07 86.8645 -70.9353 92.892 25.9115
Tx-DS-Rx 
12.0458 -18.3613 5.3
40.6947 -4.44299 3.69095
28.2268 31.6341 1.6
21 4 -113.42 -31.5863 5.57512e-07 88.7311 -72.2474 91.2689 113.835
Tx-F-X-R-R-Rx 
12.0458 -18.3613 5.3
1.42325 5.68394 4.71774
-1.22516 11.6789 4.57257
-12.6264 37.4868 3.94763
39.9421 -4.95868 2.45106
28.2268 31.6341 1.6
22 5 -113.644 99.2809 4.61578e-07 88.4673 65.625 91.5327 137.067
Tx-R-F-X-R-R-Rx 
12.0458 -18.3613 5.3
-15.0117 6.8109 4.31118
-12.158 14.3992 4.09426
-11.4112 16.385 4.03749
0.228231 47.3355 3.15274
36.9506 50.888 2.16558
28.2268 31.6341 1.6
23 4 -114.358 91.6822 2.83251e-07 87.5019 13.545 92.4981 57.1188
Tx-F-X-R-D-Rx 
12.0458 -18.3613 5.3
45.3216 33.1123 2.62593
45.4731 33.3467 2.61376
47.3836 36.302 2.46023
41.5269 34.8383 2.19685
28.2268 31.6341 1.6
24 3 -114.602 56.6477 5.35748e-07 88.6795 -88.295 91.3205 32.411
Tx-R-R-D-Rx 
12.0458 -18.3613 5.3
69.0493 17.8296 3.7436
32.5409 -10.0297 2.68504
29.5221 -11.8791 2.60344
28.2268 31.6341 1.6
25 1 -115.781 -7.97127 1.82809e-07 86.1276 -115.581 93.8724 104.928
Tx-D-Rx 
12.0458 -18.3613 5.3
9.2726 -7.95968 4.57133
28.2268 31.6341 1.6
18 25
-80.482 2.05349e-07 5.62988e-08
1 0 -83.9564 -45.5568 1.87005e-07 86.2146 -112.375 93.7854 67.6248
Tx-Rx 
12.0458 -18.3613 5.3
33.3337 33.3506 1.6
2 1 -89.5667 -82.6827 1.87633e-07 96.0226 -112.375 96.0226 67.6248
Tx-R-Rx 
12.0458 -18.3613 5.3
29.3648 23.7094 0.5
33.3337 33.3506 1.6
3 1 -95.5486 29.4964 2.65353e-07 87.3333 13.6399 92.6667 57.5106
Tx-R-Rx 
12.0458 -18.3613 5.3
47.1045 36.6922 2.26001
33.3337 33.3506 1.6
4 1 -96.1311 130.463 2.30591e-07 86.9309 10.7881 93.0691 61.1368
Tx-D-Rx 
12.0458 -18.3613 5.3
41.3956 34.8868 2.04003
33.3337 33.3506 1.6
5 1 -98.4383 -80.4107 2.30592e-07 86.9309 10.5481 93.0691 61.1042
Tx-D-Rx 
12.0458 -18.3613 5.3
41.4181 34.856 2.04091
33.3337 33.3506 1.6
6 1 -99.5033 80.7838 2.46848e-07 87.1332 -24.5653 92.8668 51.2603
Tx-D-Rx 
12.0458 -18.3613 5.3
48.1135 26.5947 2.41378
33.3337 33.3506 1.6
7 3 -99.9826 125.977 3.42801e-07 87.9361 155.552 92.0639 99.3643
Tx-F-X-R-Rx 
12.0458 -18.3613 5.3
7.53634 8.98383 4.30122
6.45975 15.5122 4.06278
1.10149 48.0046 2.876
33.3337 33.3506 1.6
8 1 -101.023 -127.232 2.4685e-07 87.1332 -24.6703 92.8668 51.2304
Tx-D-Rx 
12.0458 -18.3613 5.3
48.1224 26.5578 2.41495
33.3337 33.3506 1.6
9 1 -101.273 41.6685 1.87634e-07 95.5573 -112.308 96.1404 67.6078
Tx-D-Rx 
12.0458 -18.3613 5.3
29.0423 22.8913 0.5
33.3337 33.3506 1.6
10 1 -104.668 -77.1388 1.95827e-07 86.3854 -120.219 93.6146 104.928
Tx-D-Rx 
12.0458 -18.3613 5.3
9.2726 -7.95968 4.61997
33.3337 33.3506 1.6
11 1 -105.213 69.8274 2.82899e-07 83.0242 50.5346 91.6885 64.3048
Tx-DS-Rx 
12.0458 -18.3613 5.3
41.9816 43.8543 3.26473
33.3337 33.3506 1.6
12 2 -105.342 44.5121 3.82558e-07 88.1506 32.1577 91.8494 167.644
Tx-D-R-Rx 
12.0458 -18.3613 5.3
-18.316 -11.7102 4.29641
39.7037 37.3555 1.84295
33.3337 33.3506 1.6
13 2 -106.327 138.473 2.65372e-07 87.3335 11.6421 92.6665 57.277
Tx-R-D-Rx 
12.0458 -18.3613 5.3
47.2711 36.4593 2.26518
41.4819 35.0294 1.98746
33.3337 33.3506 1.6
14 1 -106.458 73.3314 1.95828e-07 86.3854 -120.193 93.6146 105.048
Tx-D-Rx 
12.0458 -18.3613 5.3
9.26452 -8.01606 4.62329
33.3337 33.3506 1.6
15 2 -106.583 140 2.65355e-07 87.3333 13.79 92.6667 57.8392
Tx-D-R-Rx 
12.0458 -18.3613 5.3
25.3039 2.72418 4.13991
47.0812 36.7248 2.25931
33.3337 33.3506 1.6
16 2 -107.1 -13.4754 8.26593e-07 89.1442 -155.768 90.8558 -157.344
Tx-R-R-Rx 
12.0458 -18.3613 5.3
-76.94 -55.5048 3.85962
-57.168 -7.38238 3.08249
33.3337 33.3506 1.6
17 4 -107.697 -43.4725 3.94001e-07 88.2044 84.4738 91.7956 88.2393
Tx-F-X-R-R-Rx 
12.0458 -18.3613 5.3
12.9968 12.5759 4.32966
13.2034 19.297 4.11885
14.3991 58.1927 2.8989
35.2593 53.2526 2.22684
33.3337 33.3506 1.6
18 2 -110.035 117.542 1.96426e-07 95.7521 -120.219 95.7521 104.928
Tx-D-R-Rx 
12.0458 -18.3613 5.3
9.2726 -7.95968 4.21563
27.8376 23.9144 0.5
33.3337 33.3506 1.6
19 1 -110.168 -74.9405 1.8727e-07 86.22 -114.348 93.78 72.3546
Tx-D-Rx 
12.0458 -18.3613 5.3
17.0461 -2.6415 4.21013
33.3337 33.3506 1.6
20 2 -110.185 54.3288 1.9588e-07 86.3864 -118.237 93.6136 104.992
Tx-R-D-Rx 
12.0458 -18.3613 5.3
9.26831 -7.98958 4.62191
25.2137 18.2306 2.68386
33.3337 33.3506 1.6
21 1 -110.23 -132.352 1.88867e-07 86.252 -105.222 93.748 58.5202
Tx-D-Rx 
12.0458 -18.3613 5.3
25.0343 2.85074 3.67064
33.3337 33.3506 1.6
22 4 -110.774 74.0372 3.60318e-07 88.0364 81.8216 91.9636 82.8293
Tx-F-X-D-R-Rx 
12.0458 -18.3613 5.3
16.0847 13.742 4.1907
16.5521 17.4571 4.06232
21.2688 54.9473 2.76688
36.0376 52.1644 2.25164
33.3337 33.3506 1.6
23 4 -111.367 -110.43 3.60318e-07 88.0364 81.8449 91.9636 82.8186
Tx-F-X-D-R-Rx 
12.0458 -18.3613 5.3
16.0917 13.7489 4.19043
16.5576 17.447 4.06265
21.2841 54.9585 2.76644
36.0311 52.1735 2.25191
33.3337 33.3506 1.6
24 5 -111.486 131.369 6.23287e-07 88.865 -124.217 91.135 51.2116
Tx-R-F-X-R-R-Rx 
12.0458 -18.3613 5.3
48.134 26.542 4.1587
26.738 18.4184 3.70529
24.2281 17.4654 3.6521
-0.632929 8.0263 3.12526
1.88865 -12.8906 2.70786
33.3337 33.3506 1.6
25 2 -111.827 -91.8927 1.96428e-07 95.752 -120.193 95.752 105.048
Tx-D-R-Rx 
12.0458 -18.3613 5.3
9.26452 -8.01606 4.22091
27.8418 23.9119 0.5
33.3337 33.3506 1.6
